Index,Timestamp,Fp1,Fp2,F3,F4,T5,T6,O1,O2,F7,F8,C3,C4,T3,T4,P3,P4
0.0,0.0,0.0,0.0,0.0,0.0,0.0,0.0,0.0,0.0,0.0,0.0,0.0,0.0,0.0,0.0,0.0,0.0
1.0,0.00390625,-262675.197443,86515.734972,-1630518.273177,30030.552152,-1508926.750294,-1890120.731607,-2298028.445009,-2547501.808107,-3510597.885918,-2468817.051508,-2474461.492832,-2441377.513573,-2446561.687775,23704.293216,-2543326.681057,-2525069.955
2.0,0.0078125,-262862.415655,86407.910157,-1630706.564272,30017.677548,-1508946.598643,-1890147.017258,-2298367.476269,-2547511.464061,-3510604.323221,-2468820.270159,-2474472.758111,-2441385.023759,-2446501.069844,23398.521352,-2543322.925964,-2525078.001628
3.0,0.01171875,-262860.269887,86326.907435,-1630767.182203,30133.012549,-1508932.114712,-1890124.4867,-2298449.015432,-2547484.105526,-3510578.574011,-2468801.494694,-2474451.300436,-2441352.837247,-2446679.704986,23476.305422,-2543301.468289,-2525046.887999
4.0,0.015625,-262640.328722,86735.676138,-1630653.992969,30194.703364,-1508925.140968,-1890110.539211,-2298173.820755,-2547475.522456,-3510565.162964,-2468797.739601,-2474441.108041,-2441345.327061,-2446836.346011,23809.972264,-2543310.051359,-2525040.987139
5.0,0.01953125,-262597.413373,86737.821905,-1630671.695551,30114.773526,-1508926.213852,-1890116.440072,-2298122.322336,-2547475.522456,-3510564.090081,-2468788.620089,-2474435.743622,-2441347.472828,-2446781.62894,23819.091775,-2543314.342894,-2525041.523581
6.0,0.0234375,-262766.392561,86678.8133,-1630849.794251,30052.546269,-1508949.280852,-1890145.407932,-2298433.99506,-2547489.469944,-3510585.011314,-2468796.130275,-2474449.154669,-2441365.17541,-2446701.16266,23668.351611,-2543312.197126,-2525054.398186
7.0,0.02734375,-260849.149328,84901.581395,-1623897.507655,28622.392252,-1499154.925246,-1880430.445722,-2291513.894977,-2537827.079037,-3501028.835896,-2459066.684135,-2464744.384854,-2431634.656386,-2437002.830148,22399.666595,-2533632.103638,-2515402.199674
8.0,0.03125,-259732.277361,83939.204686,-1619984.700678,27874.055847,-1495375.155851,-1876783.177469,-2287520.621719,-2534136.358993,-3497522.651854,-2455312.66395,-2461140.568392,-2428025.475505,-2430764.011236,22111.060871,-2530088.905107,-2511840.225678
9.0,0.03515625,-262618.334605,86872.468814,-1629062.36995,30193.63048,-1508880.616293,-1890209.244515,-2296611.702038,-2547405.785013,-3510642.947035,-2468693.133437,-2474513.527693,-2441425.793341,-2443603.210879,23990.216731,-2543405.538011,-2525142.374652
10.0,0.0390625,-262758.345933,86817.215302,-1629223.30251,30152.324456,-1508980.930922,-1890274.690422,-2296982.91981,-2547505.5632,-3510693.909013,-2468792.375182,-2474566.635438,-2441480.510411,-2444671.266636,23703.756774,-2543437.188081,-2525194.945955
11.0,0.04296875,-262808.771468,87007.115723,-1629378.33421,30232.254294,-1508965.91055,-1890234.993724,-2297268.306883,-2547489.469944,-3510644.019919,-2468790.229415,-2474525.865856,-2441435.449295,-2445180.886409,23616.31675,-2543381.934569,-2525144.520419
12.0,0.046875,-262582.393,87166.975399,-1629403.010536,30346.516412,-1508960.546131,-1890202.807212,-2297135.805742,-2547490.542828,-3510618.807151,-2468803.640461,-2474508.163274,-2441405.944992,-2445833.736161,23928.525916,-2543377.643034,-2525120.380535
13.0,0.05078125,-262411.804487,87061.296351,-1629441.097908,30315.939226,-1508966.446992,-1890193.6877,-2297028.517369,-2547499.125898,-3510619.880035,-2468810.614206,-2474501.725972,-2441398.971248,-2446167.939445,24103.942407,-2543382.471011,-2525112.333907
14.0,0.0546875,-262520.165744,86940.060489,-1629672.840795,30229.035643,-1508973.420736,-1890200.661445,-2297334.825675,-2547501.271665,-3510615.5885,-2468806.322671,-2474494.752228,-2441402.189899,-2446329.944888,23858.252032,-2543364.768429,-2525103.750837
15.0,0.05859375,-262621.016815,87100.993049,-1629927.650681,30288.044249,-1508957.863922,-1890179.20377,-2297679.221353,-2547477.668223,-3510583.93843,-2468790.229415,-2474472.758111,-2441371.07627,-2446422.212889,23709.657634,-2543330.972592,-2525071.564325
16.0,0.0625,-262437.553696,87308.05961,-1630010.262729,30377.63004,-1508949.280852,-1890157.746095,-2297602.510166,-2547469.085153,-3510567.308732,-2468795.593833,-2474460.95639,-2441351.227921,-2446565.97931,24107.161058,-2543328.826824,-2525056.007511
17.0,0.06640625,-262234.778671,87248.514563,-1630024.210218,30207.041527,-1508965.91055,-1890175.448677,-2297417.437722,-2547496.443688,-3510595.740151,-2468818.660834,-2474478.658972,-2441372.149154,-2446829.372266,24308.326758,-2543356.721801,-2525076.392302
18.0,0.0703125,-262314.172067,87102.065933,-1630214.64708,30329.350272,-1508977.175829,-1890192.614817,-2297629.868702,-2547509.318293,-3510604.859663,-2468823.48881,-2474484.559832,-2441390.92462,-2446802.550173,24058.88129,-2543361.013336,-2525088.730465
19.0,0.07421875,-262453.646952,87210.42719,-1630463.019665,30407.670785,-1508971.81141,-1890187.78684,-2297990.357636,-2547495.907247,-3510583.93843,-2468813.296415,-2474471.685227,-2441374.831364,-2446718.3288,23846.450311,-2543336.33701,-2525071.564325
20.0,0.078125,-262328.655997,87443.24296,-1630550.459689,30543.390577,-1508959.473247,-1890162.574072,-2297970.509287,-2547482.4962,-3510565.162964,-2468812.223531,-2474458.810623,-2441349.618596,-2446784.847592,24192.455315,-2543328.290382,-2525053.325302
21.0,0.08203125,-262080.819855,87424.467495,-1630522.564712,30566.994019,-1508950.353736,-1890148.626584,-2297737.157075,-2547474.986014,-3510576.964686,-2468809.541322,-2474451.300436,-2441341.035526,-2447071.84399,24538.996761,-2543327.753941,-2525046.887999
22.0,0.0859375,-262125.880972,87264.071377,-1630643.800574,30476.871786,-1508985.222457,-1890189.932607,-2297858.929379,-2547505.5632,-3510605.932546,-2468829.389671,-2474484.02339,-2441378.586457,-2447145.336526,24264.874967,-2543350.284499,-2525076.928744
23.0,0.08984375,-262294.323718,87313.424029,-1630861.595972,30473.116693,-1508993.805527,-1890201.734328,-2298224.782732,-2547504.490316,-3510602.177453,-2468827.243904,-2474486.169158,-2441381.268666,-2447033.756618,23999.336243,-2543338.482778,-2525076.928744
24.0,0.09375,-262227.268485,87558.04152,-1630935.624949,30608.300043,-1508980.930922,-1890180.276654,-2298261.797221,-2547486.787735,-3510575.891802,-2468819.197276,-2474472.758111,-2441361.420317,-2447105.103386,24156.51371,-2543332.045475,-2525059.762604
25.0,0.09765625,-261980.505226,87587.545823,-1630866.96039,30658.725579,-1508987.904666,-1890180.813096,-2297998.404264,-2547498.589456,-3510586.084197,-2468831.535438,-2474480.804739,-2441368.930503,-2447277.837667,24492.86276,-2543361.013336,-2525071.564325
26.0,0.1015625,-261968.703505,87422.321728,-1630943.671577,30577.722857,-1508939.624898,-1890136.288421,-2298033.809427,-2547445.481711,-3510542.095964,-2468771.990391,-2474426.087669,-2441320.650735,-2447236.531643,24445.119434,-2543313.806452,-2525020.602348
27.0,0.10546875,-262137.146251,87337.027471,-1631141.082184,30455.950553,-1508956.791038,-1890159.891863,-2298371.767804,-2547454.064781,-3510554.434127,-2468780.037019,-2474435.20718,-2441333.52534,-2447123.878851,24256.291897,-2543310.051359,-2525029.72186
28.0,0.109375,-262129.099623,87281.237517,-1631211.892511,30535.880391,-1508994.341969,-1890199.052119,-2298475.837526,-2547490.542828,-3510583.93843,-2468828.316787,-2474475.44032,-2441362.493201,-2447202.199364,24432.781271,-2543333.654801,-2525063.517697
29.0,0.11328125,-261907.01269,87706.099475,-1631113.723649,30772.987696,-1509003.997922,-1890202.807212,-2298212.981011,-2547500.198782,-3510593.594383,-2468844.946485,-2474482.414065,-2441366.248294,-2447377.615854,24607.124878,-2543356.18536,-2525071.027883
30.0,0.1171875,-261863.560899,87723.265615,-1631130.889789,30708.07823,-1509015.799643,-1890217.291143,-2298159.336824,-2547509.854735,-3510605.396105,-2468843.873601,-2474485.632716,-2441383.950875,-2447386.198924,24636.629181,-2543371.742174,-2525079.610953
31.0,0.12109375,-262024.493459,87668.548544,-1631304.696954,30649.069625,-1509016.336085,-1890223.728445,-2298475.837526,-2547500.198782,-3510597.885918,-2468827.243904,-2474477.586088,-2441379.122898,-2447274.082574,24349.632782,-2543352.966708,-2525070.491442
32.0,0.125,-261775.584433,87593.983125,-1630306.37864,30526.760879,-1507439.733438,-1888654.099542,-2297547.793096,-2545935.934298,-3509041.131621,-2467259.224327,-2472908.493627,-2439795.010065,-2445818.179347,24150.612849,-2541785.483573,-2523504.08119
33.0,0.12890625,-258239.359646,84258.924038,-1618527.188126,27956.667895,-1491834.63953,-1873210.474635,-2285712.276186,-2530582.431624,-3493921.517601,-2451766.78321,-2457504.028976,-2424366.405531,-2429453.483755,22457.602317,-2526483.479319,-2508204.759145
34.0,0.1328125,-260784.239862,86731.384603,-1626249.805242,29924.873105,-1504231.274632,-1885619.984343,-2293409.680535,-2542783.265446,-3506103.575957,-2464040.573125,-2469890.471684,-2436786.644076,-2439278.416548,24285.259758,-2538835.589747,-2520532.729689
35.0,0.13671875,-262008.400203,87825.18957,-1629649.773794,30761.185975,-1509069.44383,-1890394.853401,-2297027.444485,-2547528.093759,-3510748.626083,-2468834.75409,-2474635.299997,-2441539.519017,-2444945.924872,24584.057878,-2543533.747617,-2525251.808793
36.0,0.140625,-262060.971506,88001.142502,-1629763.49947,30835.214953,-1509070.516714,-1890361.057563,-2297303.712047,-2547532.385294,-3510707.320059,-2468849.774462,-2474605.795694,-2441497.140109,-2445703.91723,24479.451713,-2543486.540733,-2525214.794304
37.0,0.14453125,-261848.540526,88155.101318,-1629783.347819,30946.794861,-1509056.569225,-1890315.996446,-2297200.715208,-2547523.265782,-3510664.40471,-2468850.310904,-2474570.390531,-2441452.615434,-2446270.936283,24779.859159,-2543461.864407,-2525173.48828
38.0,0.1484375,-261696.191036,88040.302758,-1629842.892866,30911.92614,-1509035.647993,-1890277.372632,-2297098.254812,-2547503.953875,-3510635.973291,-2468829.389671,-2474529.620949,-2441416.673829,-2446704.917753,24961.17651,-2543434.505872,-2525132.182256
39.0,0.15234375,-261808.843828,87895.999896,-1630092.338335,30814.830162,-1509038.866644,-1890277.909074,-2297409.927536,-2547500.198782,-3510628.999547,-2468820.270159,-2474517.282786,-2441411.30941,-2446802.550173,24712.803926,-2543414.657523,-2525116.089
40.0,0.15625,-261932.7619,88025.818828,-1630363.241477,30858.818395,-1509051.741249,-1890285.41926,-2297781.145308,-2547505.026758,-3510621.489361,-2468832.07188,-2474523.183647,-2441412.382294,-2446943.097942,24538.460319,-2543406.074453,-2525113.406791
41.0,0.16015625,-261775.584433,88215.719249,-1630456.04592,30981.127141,-1509035.647993,-1890254.305631,-2297744.667261,-2547491.07927,-3510599.495244,-2468829.926113,-2474502.798856,-2441382.877992,-2447122.269526,24957.421417,-2543392.126965,-2525092.485558
42.0,0.1640625,-261576.5645,88136.325852,-1630489.305316,30967.716094,-1509031.8929,-1890242.50391,-2297573.005864,-2547488.933502,-3510604.859663,-2468831.535438,-2474490.460693,-2441374.294922,-2447394.245552,25210.621978,-2543381.398127,-2525084.975372
43.0,0.16796875,-261671.51471,87955.544943,-1630688.861691,30718.807068,-1509038.330202,-1890255.378515,-2297789.728378,-2547494.834363,-3510608.078314,-2468829.389671,-2474490.460693,-2441382.34155,-2447336.846273,24850.669485,-2543374.960825,-2525084.975372
44.0,0.171875,-261838.348131,88019.381525,-1630939.380042,30754.748673,-1509046.37683,-1890273.081097,-2298166.84701,-2547502.880991,-3510610.760523,-2468837.436299,-2474500.116646,-2441390.388178,-2447346.502226,24599.07825,-2543369.596406,-2525090.339791
45.0,0.17578125,-261744.470804,88221.620109,-1631006.971718,31029.943351,-1509046.913272,-1890263.961585,-2298169.52922,-2547502.880991,-3510604.323221,-2468847.092253,-2474504.944623,-2441384.487317,-2447526.210252,24792.197322,-2543379.788802,-2525088.730465
46.0,0.1796875,-261529.894057,88179.241202,-1630988.196252,31044.427281,-1509054.423458,-1890263.425143,-2297934.03124,-2547513.609828,-3510609.151198,-2468855.675322,-2474504.408181,-2441388.24241,-2447652.27409,25082.412372,-2543403.928686,-2525095.704209
47.0,0.18359375,-261576.5645,87985.049246,-1631141.618626,30939.284675,-1509044.231062,-1890263.425143,-2298045.074707,-2547500.735223,-3510601.641011,-2468836.363415,-2474487.778483,-2441381.805108,-2447593.801927,24956.348533,-2543388.908313,-2525082.293163
48.0,0.1875,-261757.881851,87998.460293,-1631374.434397,30913.535465,-1509072.12604,-1890296.684539,-2298404.490758,-2547521.120014,-3510620.952919,-2468854.065997,-2474512.454809,-2441403.262782,-2447481.685577,24786.832903,-2543395.345616,-2525102.141512
49.0,0.19140625,-261718.721595,88215.719249,-1631462.410863,31034.771327,-1509057.105667,-1890272.008213,-2298466.181572,-2547503.953875,-3510604.323221,-2468844.946485,-2474496.897995,-2441379.122898,-2447651.201207,24836.721997,-2543373.351499,-2525082.829604
50.0,0.1953125,-261493.416011,88220.010784,-1631409.83956,31072.8587,-1509042.085295,-1890249.477655,-2298202.788616,-2547487.860619,-3510584.474872,-2468833.681206,-2474480.268297,-2441364.638968,-2447861.486418,25106.015814,-2543377.106592,-2525071.564325
51.0,0.19921875,-261504.68129,88022.600177,-1631503.180445,30973.080513,-1509038.866644,-1890250.014097,-2298222.100523,-2547481.423316,-3510581.792662,-2468814.905741,-2474463.638599,-2441361.956759,-2447806.769348,25051.298744,-2543371.205732,-2525062.981255
52.0,0.203125,-261695.654594,87930.868617,-1631712.392773,30917.827,-1509058.714993,-1890277.909074,-2298557.37669,-2547493.761479,-3510595.740151,-2468820.806601,-2474478.12253,-2441377.513573,-2447717.719998,24738.553135,-2543370.66929,-2525074.782976
53.0,0.20703125,-261715.502943,87824.116686,-1631805.733658,30981.127141,-1509059.787877,-1890275.763306,-2298672.175249,-2547484.105526,-3510585.011314,-2468819.197276,-2474475.44032,-2441364.102526,-2447775.119278,24829.748253,-2543365.304871,-2525065.127023
54.0,0.2109375,-261506.827057,88130.961434,-1631744.579285,30933.920256,-1509044.767504,-1890255.378515,-2298402.34499,-2547473.376688,-3510563.553639,-2468815.978624,-2474455.591971,-2441343.181293,-2447892.063605,25325.95698,-2543357.794685,-2525051.179534
55.0,0.21484375,-261469.276127,88185.142062,-1631798.223471,31013.313653,-1509050.131923,-1890265.034469,-2298333.680431,-2547481.423316,-3510582.329104,-2468812.223531,-2474452.909762,-2441352.837247,-2447908.156861,25173.071047,-2543358.331127,-2525057.080395
56.0,0.21875,-261650.057036,88089.118968,-1631996.17052,30952.695722,-1509080.709109,-1890304.194725,-2298640.525179,-2547502.880991,-3510609.151198,-2468826.707462,-2474477.586088,-2441380.732224,-2447805.160022,24824.920276,-2543367.987081,-2525079.074511
57.0,0.22265625,-261723.01313,88268.290552,-1632125.45301,31036.380653,-1509089.828621,-1890312.241353,-2298824.524739,-2547505.5632,-3510602.177453,-2468833.681206,-2474484.559832,-2441383.950875,-2447894.745814,24777.713392,-2543369.596406,-2525081.220279
58.0,0.2265625,-259984.405039,86798.976278,-1626475.110826,29885.712848,-1501370.430156,-1882646.487075,-2293064.211972,-2539892.916667,-3503069.460758,-2461166.317602,-2466828.997949,-2433712.832178,-2440322.868862,24077.120313,-2535769.288036,-2517473.401722
59.0,0.23046875,-258226.485041,84747.086137,-1619909.062375,28344.515365,-1493785.142158,-1875229.105381,-2286566.291638,-2532449.249321,-3495840.906601,-2453612.679674,-2459430.928162,-2426316.908159,-2430525.831047,23165.16914,-2528444.174343,-2510145.069378
60.0,0.234375,-261672.051152,87972.711083,-1630109.504474,30876.520977,-1508671.940407,-1890047.239071,-2296872.949227,-2547077.48259,-3510329.664985,-2468353.565735,-2474197.026991,-2441114.120616,-2444399.290609,24898.949253,-2543121.223822,-2524828.019718
61.0,0.23828125,-261865.706666,88256.488831,-1630502.179921,31041.745072,-1509123.088017,-1890452.25268,-2297435.140304,-2547522.72934,-3510714.830245,-2468815.978624,-2474597.749066,-2441504.650295,-2445824.61665,24807.754136,-2543502.097547,-2525227.668909
62.0,0.2421875,-261658.103664,88383.089111,-1630511.299433,31136.15884,-1509101.630342,-1890390.025424,-2297314.440884,-2547506.636084,-3510663.868268,-2468811.687089,-2474553.760833,-2441449.933225,-2446588.509868,25079.730163,-2543464.546617,-2525175.097606
63.0,0.24609375,-261469.276127,88238.249807,-1630590.692829,31088.415514,-1509072.662481,-1890341.209214,-2297187.840603,-2547485.178409,-3510624.17157,-2468790.229415,-2474504.408181,-2441405.944992,-2447031.074408,25250.855118,-2543431.287221,-2525127.890721
64.0,0.25,-261591.584872,88053.177363,-1630891.636716,30970.398303,-1509065.688737,-1890331.016818,-2297474.837002,-2547474.986014,-3510602.713895,-2468772.526833,-2474477.049646,-2441387.705968,-2447198.444271,24987.462161,-2543396.4185,-2525099.995744
65.0,0.25390625,-261745.543688,88139.544504,-1631216.184046,30990.783094,-1509071.053156,-1890328.334609,-2297838.008146,-2547471.230921,-3510584.474872,-2468773.063275,-2474471.148785,-2441374.831364,-2447337.382714,24777.17695,-2543375.497267,-2525083.902488
66.0,0.2578125,-261618.406966,88298.867738,-1631359.414024,31096.998584,-1509091.974389,-1890334.771911,-2297796.702122,-2547495.370805,-3510599.495244,-2468805.786229,-2474490.460693,-2441385.023759,-2447608.822299,25126.400605,-2543397.491383,-2525097.849977
67.0,0.26171875,-261439.771824,88194.798016,-1631459.728653,31072.8587,-1509100.021017,-1890335.308353,-2297612.16612,-2547505.5632,-3510612.906291,-2468821.879485,-2474488.851367,-2441387.705968,-2447834.127883,25410.714794,-2543401.782918,-2525102.677954
68.0,0.265625,-261549.742407,87982.367037,-1631744.579285,30878.130302,-1509111.822738,-1890353.010935,-2297813.868262,-2547512.536944,-3510619.343593,-2468821.343043,-2474487.778483,-2441398.971248,-2447808.915115,25037.887697,-2543395.882058,-2525106.969488
69.0,0.26953125,-261735.887734,88012.944223,-1632054.642684,30806.247092,-1509090.901505,-1890338.527005,-2298199.569964,-2547488.39706,-3510595.740151,-2468792.911624,-2474464.711483,-2441376.440689,-2447802.477813,24760.547252,-2543354.576034,-2525078.001628
70.0,0.2734375,-261663.468082,88193.18869,-1632183.388732,31071.249374,-1509086.60997,-1890327.798167,-2298208.689476,-2547487.860619,-3510586.620639,-2468799.348926,-2474465.247925,-2441365.711852,-2447950.535768,24924.698463,-2543361.013336,-2525073.173651
71.0,0.27734375,-261447.818452,88132.570759,-1632219.866779,31083.587537,-1509071.589598,-1890303.658283,-2297964.608427,-2547477.668223,-3510576.428244,-2468787.010764,-2474447.008901,-2441348.00927,-2448115.223421,25202.57535,-2543365.304871,-2525059.226162
72.0,0.28125,-261515.946569,87909.947385,-1632424.25113,30963.424559,-1509067.834505,-1890304.194725,-2298065.459498,-2547466.939386,-3510567.845174,-2468767.162414,-2474428.769878,-2441343.717735,-2448060.506351,25062.564023,-2543351.893825,-2525047.960883
73.0,0.28515625,-261726.768223,87878.833756,-1632695.154273,30916.754117,-1509081.245551,-1890322.97019,-2298430.239967,-2547471.230921,-3510569.990941,-2468767.698856,-2474435.743622,-2441354.446573,-2448007.935048,24743.917554,-2543344.92008,-2525054.398186
74.0,0.2890625,-261717.112269,88065.515526,-1632827.118972,31020.287397,-1509091.437947,-1890327.798167,-2298497.295201,-2547483.032642,-3510573.209592,-2468789.156531,-2474445.936018,-2441358.201666,-2448098.593724,24938.10951,-2543356.18536,-2525064.054139
75.0,0.29296875,-261488.588034,88048.885828,-1632814.244367,31046.573048,-1509081.245551,-1890309.022702,-2298226.392058,-2547477.131781,-3510573.746034,-2468789.692973,-2474437.352948,-2441347.472828,-2448292.785679,25354.92484,-2543351.893825,-2525056.543953
76.0,0.296875,-261485.369383,87820.898035,-1632929.579369,30904.952396,-1509093.583714,-1890322.97019,-2298234.975128,-2547487.324177,-3510588.229965,-2468788.083647,-2474439.498715,-2441362.493201,-2448294.395005,25090.995442,-2543353.50315,-2525066.736348
77.0,0.30078125,-261695.654594,87737.749545,-1633161.322255,30688.766323,-1509110.213412,-1890352.474493,-2298580.44369,-2547501.808107,-3510600.031686,-2468790.765857,-2474447.008901,-2441375.367805,-2448182.815097,24737.480251,-2543348.675173,-2525076.392302
78.0,0.3046875,-261746.08013,87908.874501,-1633288.458978,30940.894001,-1509095.19304,-1890338.527005,-2298713.481273,-2547487.324177,-3510580.183337,-2468782.719229,-2474437.88939,-2441355.519456,-2448232.70419,24742.84467,-2543337.946336,-2525062.444814
79.0,0.30859375,-261539.013569,87758.134336,-1633233.741907,31031.552676,-1509087.146412,-1890322.433749,-2298453.843409,-2547474.986014,-3510562.480755,-2468774.672601,-2474424.478343,-2441339.962642,-2448379.15282,25047.007209,-2543343.847197,-2525051.179534
80.0,0.3125,-261524.529639,87369.750425,-1633276.120815,30932.310931,-1509106.458319,-1890341.745656,-2298371.767804,-2547485.714851,-3510578.037569,-2468774.136159,-2474425.014785,-2441352.837247,-2448420.458844,25065.782674,-2543358.867569,-2525061.908372
81.0,0.31640625,-261734.814851,87668.548544,-1633478.359399,30830.923418,-1509128.988877,-1890373.932168,-2298674.857458,-2547496.98013,-3510592.5215,-2468777.891252,-2474435.743622,-2441374.831364,-2448315.316238,24730.506507,-2543359.940453,-2525075.319418
82.0,0.3203125,-261834.056596,87899.218547,-1633617.834284,30894.76,-1509115.041389,-1890359.984679,-2298863.684996,-2547478.204665,-3510568.381616,-2468764.480205,-2474420.72325,-2441351.764363,-2448334.091703,24710.658158,-2543335.800569,-2525053.861744
83.0,0.32421875,-261645.229059,87967.883106,-1633554.534144,30963.961001,-1509110.213412,-1890344.427865,-2298616.921737,-2547479.277549,-3510567.308732,-2468772.526833,-2474414.822389,-2441341.035526,-2448429.041914,25152.149815,-2543336.33701,-2525050.643092
84.0,0.328125,-259130.389587,85314.641632,-1624534.800593,28913.680186,-1497056.364662,-1878396.258163,-2289764.021607,-2535600.845289,-3498848.736149,-2456791.097735,-2462471.480664,-2429393.402266,-2436312.965907,23445.191794,-2531455.222542,-2513188.840531
85.0,0.33203125,-259276.838216,84921.429744,-1623485.520302,28605.226112,-1497251.629502,-1878722.95126,-2289062.892087,-2535820.786455,-3499218.344595,-2456956.858272,-2462812.12125,-2429744.771689,-2433821.729877,23101.332557,-2531810.883499,-2513544.501489
86.0,0.3359375,-262054.534203,87768.863174,-1631804.660774,30841.115813,-1509174.049994,-1890561.686821,-2297397.052931,-2547513.073386,-3510745.943874,-2468758.579345,-2474592.384647,-2441540.5919,-2445572.488972,24628.582553,-2543513.899268,-2525254.491002
87.0,0.33984375,-261859.269364,87890.099036,-1631707.028354,30937.138908,-1509166.003366,-1890502.678216,-2297240.411906,-2547517.901363,-3510691.226803,-2468774.136159,-2474545.177763,-2441479.437528,-2446601.920915,24869.981393,-2543474.20257,-2525211.575653
88.0,0.34375,-261667.223175,87731.312243,-1631744.579285,30880.812512,-1509162.784715,-1890473.710355,-2297085.380207,-2547525.411549,-3510677.279315,-2468783.792112,-2474516.209902,-2441453.151876,-2447235.995202,25034.132604,-2543459.182198,-2525183.144234
89.0,0.34765625,-261790.068363,87522.099915,-1632020.846846,30753.139347,-1509164.394041,-1890465.663727,-2297363.257094,-2547523.265782,-3510661.722501,-2468774.672601,-2474491.533576,-2441436.522178,-2447527.283135,24760.01081,-2543425.922802,-2525157.931466
90.0,0.3515625,-261957.438225,87579.499195,-1632333.056013,30757.967324,-1509154.201645,-1890446.35182,-2297747.349471,-2547503.953875,-3510628.463105,-2468758.579345,-2474463.638599,-2441411.30941,-2447727.375952,24519.684854,-2543381.934569,-2525123.062745
91.0,0.35546875,-261843.71255,87724.87494,-1632479.504642,30852.917534,-1509135.42618,-1890411.483098,-2297728.037563,-2547490.542828,-3510597.349476,-2468751.6056,-2474440.571599,-2441376.440689,-2447996.669769,24724.605647,-2543364.768429,-2525093.022
92.0,0.359375,-261636.645989,87611.685707,-1632562.653132,30828.241209,-1509128.452436,-1890393.780517,-2297539.746468,-2547488.39706,-3510589.83929,-2468750.532717,-2474423.405459,-2441363.029642,-2448236.995725,24991.753696,-2543368.523522,-2525082.293163
93.0,0.36328125,-261738.033502,87382.625029,-1632813.171484,30656.579811,-1509147.227901,-1890412.555982,-2297738.229959,-2547499.125898,-3510602.713895,-2468757.506461,-2474427.696994,-2441376.977131,-2448282.593284,24923.089137,-2543359.940453,-2525087.657581
94.0,0.3671875,-261948.318714,87387.989448,-1633096.412789,30481.699763,-1509155.810971,-1890428.649238,-2298132.514731,-2547506.636084,-3510610.760523,-2468761.261554,-2474434.134297,-2441382.34155,-2448300.832307,24482.670365,-2543342.774313,-2525089.266907
95.0,0.37109375,-261897.893178,87554.286427,-1633203.164721,30772.987696,-1509146.691459,-1890414.165308,-2298164.164801,-2547503.953875,-3510597.349476,-2468765.553089,-2474433.061413,-2441369.466945,-2448429.041914,24604.442668,-2543343.847197,-2525080.683837
96.0,0.375,-261683.852873,87489.376961,-1633213.357116,30811.075069,-1509129.525319,-1890388.95254,-2297930.276147,-2547490.006386,-3510575.891802,-2468750.532717,-2474406.775761,-2441348.00927,-2448577.099869,24883.928881,-2543341.701429,-2525064.590581
97.0,0.37890625,-261745.007246,87256.024749,-1633371.607467,30687.156998,-1509111.822738,-1890375.541493,-2298030.590776,-2547469.085153,-3510558.18922,-2468719.419088,-2474377.271459,-2441332.988898,-2448565.83459,24752.500624,-2543314.342894,-2525040.450697
98.0,0.3828125,-261961.72976,87210.963632,-1633593.6944,30631.903485,-1509118.26004,-1890385.733889,-2298399.662781,-2547462.111409,-3510559.798546,-2468709.226693,-2474375.125691,-2441332.988898,-2448529.356543,24429.026178,-2543297.176754,-2525036.159162
99.0,0.38671875,-261970.849272,87388.52589,-1633667.186936,30731.681673,-1509113.968505,-1890376.614377,-2298483.884154,-2547455.674107,-3510548.533267,-2468711.37246,-2474372.443482,-2441322.260061,-2448600.166869,24528.267923,-2543296.10387,-2525027.576092
100.0,0.390625,-261754.6632,87372.432634,-1633605.496121,30760.113091,-1509126.84311,-1890383.051679,-2298217.272546,-2547473.91313,-3510561.407871,-2468737.12167,-2474384.781645,-2441334.061782,-2448767.00029,25030.913953,-2543322.389522,-2525048.497325
101.0,0.39453125,-261758.418293,87142.835515,-1633678.988657,30642.632323,-1509147.227901,-1890407.191564,-2298209.76236,-2547493.225037,-3510587.693523,-2468748.923391,-2474397.65625,-2441356.055898,-2448755.198569,24833.503346,-2543327.753941,-2525067.27279
102.0,0.3984375,-261975.140807,87042.520886,-1633868.889078,30561.629601,-1509154.201645,-1890418.456843,-2298552.012271,-2547491.07927,-3510593.057942,-2468738.194554,-2474393.901157,-2441358.738108,-2448714.965429,24422.052434,-2543308.442033,-2525061.908372
103.0,0.40234375,-262037.368064,87208.817865,-1633951.501125,30632.439927,-1509162.248273,-1890419.529726,-2298700.070226,-2547494.834363,-3510585.547755,-2468747.850507,-2474403.55711,-2441358.738108,-2448723.548499,24414.005806,-2543314.342894,-2525066.199907
104.0,0.40625,-261835.12948,87244.75947,-1633875.32638,30536.416833,-1509155.810971,-1890409.873773,-2298447.942549,-2547498.589456,-3510578.574011,-2468750.532717,-2474397.65625,-2441351.227921,-2448859.804733,24718.704786,-2543330.972592,-2525066.199907
105.0,0.41015625,-261782.558177,87031.792048,-1633895.174729,30563.238926,-1509152.59232,-1890416.847517,-2298356.747431,-2547505.5632,-3510587.693523,-2468746.241182,-2474392.291831,-2441356.59234,-2448942.41678,24750.354856,-2543340.092103,-2525069.955
106.0,0.4140625,-261984.260319,86814.533092,-1634059.325941,30530.515972,-1509174.586436,-1890445.815378,-2298654.472668,-2547513.609828,-3510602.713895,-2468747.314065,-2474404.629994,-2441374.294922,-2448845.320802,24417.760899,-2543339.01922,-2525080.683837
107.0,0.41796875,-262102.27753,86624.09623,-1634160.177012,30589.524578,-1509196.580553,-1890464.590843,-2298863.148554,-2547521.120014,-3510603.250337,-2468760.18867,-2474415.895273,-2441378.586457,-2448865.169151,24382.892177,-2543340.092103,-2525084.43893
108.0,0.421875,-261939.199202,87010.334374,-1634081.856499,30662.480672,-1509195.507669,-1890456.544215,-2298647.498923,-2547521.656456,-3510604.859663,-2468773.063275,-2474412.676622,-2441372.149154,-2448993.378758,24835.112671,-2543341.701429,-2525082.829604
109.0,0.42578125,-261500.389755,86716.900673,-1632696.227157,30314.866342,-1507317.961135,-1888588.117193,-2297167.992254,-2545660.203178,-3508761.108966,-2466893.370973,-2472528.692785,-2439501.039922,-2447173.767945,24523.976388,-2541474.34729,-2523219.767001
110.0,0.4296875,-258350.939554,83079.288373,-1620710.506524,27543.607657,-1491817.47339,-1873262.509497,-2285839.412908,-2530404.869366,-3493757.36639,-2451477.641043,-2457229.907182,-2424185.624622,-2430544.07007,22115.352406,-2526248.517781,-2508026.124004
111.0,0.43359375,-261371.643707,85977.68378,-1629220.083859,29711.905684,-1504858.375175,-1886314.140119,-2294454.132849,-2543229.585079,-3506541.312521,-2464386.578129,-2470254.17927,-2437224.917081,-2441371.07627,23706.438983,-2539210.02617,-2520967.247601
112.0,0.4375,-262214.930322,87166.438957,-1632154.957313,30632.976369,-1509214.283134,-1890598.70131,-2297309.612907,-2547509.318293,-3510707.320059,-2468721.564856,-2474516.209902,-2441487.484156,-2446669.51259,24550.26204,-2543459.182198,-2525216.403629
113.0,0.44140625,-262008.400203,87014.089467,-1632105.068219,30581.47795,-1509206.236506,-1890554.713077,-2297120.78537,-2547514.682712,-3510674.060663,-2468726.929274,-2474474.903879,-2441448.860341,-2447467.738088,24722.459879,-2543427.532128,-2525182.07135
114.0,0.4453125,-262117.834344,86798.976278,-1632325.545827,30448.976809,-1509202.481413,-1890537.010495,-2297383.105443,-2547508.24541,-3510648.311454,-2468714.591111,-2474443.253808,-2441426.329783,-2447844.320279,24455.311829,-2543384.080337,-2525147.73907
115.0,0.44921875,-262289.495741,86847.256046,-1632608.787132,30444.685274,-1509208.918716,-1890531.109635,-2297769.343587,-2547510.391177,-3510632.218198,-2468719.419088,-2474433.597855,-2441410.772969,-2448073.380956,24201.038385,-2543356.721801,-2525126.281396
116.0,0.453125,-262185.426019,86996.386885,-1632747.189134,30540.708368,-1509194.971227,-1890501.06889,-2297759.687633,-2547499.125898,-3510599.495244,-2468717.273321,-2474410.530855,-2441378.586457,-2448372.179076,24394.693899,-2543343.847197,-2525098.386419
117.0,0.45703125,-261977.286575,86893.926489,-1632829.26474,30520.323577,-1509189.606808,-1890483.366309,-2297569.250771,-2547499.125898,-3510592.5215,-2468717.809763,-2474395.510482,-2441365.17541,-2448630.207614,24633.946971,-2543348.138731,-2525084.975372
118.0,0.4609375,-262062.044389,86661.64716,-1633067.98137,30387.285994,-1509177.268645,-1890473.173913,-2297758.61475,-2547483.032642,-3510579.110453,-2468693.669879,-2474371.370598,-2441352.837247,-2448667.758544,24439.218573,-2543320.780196,-2525063.517697
119.0,0.46484375,-262266.428741,86654.673416,-1633347.467583,30339.542668,-1509170.831343,-1890467.809494,-2298150.753754,-2547468.012269,-3510566.235848,-2468678.649506,-2474353.668017,-2441337.280433,-2448655.420381,24295.988595,-2543282.692824,-2525045.815116
120.0,0.46875,-262226.732043,86819.897511,-1633462.266143,30288.58069,-1509180.487297,-1890469.41882,-2298193.669104,-2547480.350432,-3510568.381616,-2468700.643623,-2474364.396854,-2441338.353317,-2448805.624104,24345.341247,-2543283.229266,-2525051.179534
121.0,0.47265625,-262020.201924,86763.034673,-1633467.630561,30427.519134,-1509151.519436,-1890439.378076,-2297953.343147,-2547461.574967,-3510543.168848,-2468681.868158,-2474335.965435,-2441312.604107,-2448979.967711,24543.288296,-2543274.109754,-2525027.576092
122.0,0.4765625,-262074.918994,86530.218903,-1633611.396982,30370.119854,-1509143.472808,-1890435.622982,-2298038.637404,-2547450.309688,-3510535.658662,-2468659.337599,-2474317.18997,-2441304.557479,-2448947.781199,24418.297341,-2543258.55294,-2525014.165046
123.0,0.48046875,-262292.714392,86474.965391,-1633843.67631,30306.819714,-1509167.612692,-1890465.127285,-2298410.92806,-2547466.939386,-3510553.361243,-2468668.457111,-2474332.746784,-2441323.869386,-2448850.685221,24083.021174,-2543258.55294,-2525029.185418
124.0,0.484375,-262308.807648,86649.308997,-1633942.381614,30398.551273,-1509184.778832,-1890475.856122,-2298505.341829,-2547479.813991,-3510558.18922,-2468690.451227,-2474349.376482,-2441330.306689,-2448994.451641,24149.539965,-2543276.791963,-2525040.450697
125.0,0.48828125,-262085.11139,86641.262369,-1633893.565404,30430.201343,-1509170.294901,-1890450.106913,-2298245.167523,-2547469.085153,-3510544.778174,-2468687.769018,-2474334.356109,-2441315.286316,-2449148.946899,24638.238506,-2543278.937731,-2525028.648976
126.0,0.4921875,-262065.799483,86412.201692,-1633968.130823,30320.767202,-1509171.904227,-1890457.080657,-2298230.683593,-2547469.085153,-3510551.751918,-2468681.868158,-2474328.991691,-2441318.504968,-2449178.451202,24518.61197,-2543264.990242,-2525031.331185
127.0,0.49609375,-262281.985555,86304.913319,-1634155.885477,30233.327178,-1509202.481413,-1890494.095146,-2298568.641969,-2547493.225037,-3510581.25622,-2468695.815646,-2474353.668017,-2441346.936386,-2449102.812898,24058.88129,-2543269.818219,-2525052.252418
128.0,0.5,-262357.087416,86462.627228,-1634250.835687,30284.825597,-1509192.82546,-1890480.684099,-2298727.428761,-2547481.423316,-3510559.798546,-2468688.30546,-2474341.866296,-2441328.697363,-2449109.250201,24032.059196,-2543254.797847,-2525035.086278
129.0,0.50390625,-262166.650554,86504.469693,-1634177.343151,30194.166922,-1509194.434785,-1890476.392564,-2298483.884154,-2547490.542828,-3510560.87143,-2468698.497855,-2474344.012063,-2441327.624479,-2449214.929249,24332.466642,-2543276.791963,-2525040.987139
130.0,0.5078125,-262113.006367,86295.257365,-1634190.754198,30257.467062,-1509176.732204,-1890465.663727,-2298386.251734,-2547477.668223,-3510554.970569,-2468678.113065,-2474322.554388,-2441317.968526,-2449262.672575,24374.309108,-2543268.745335,-2525028.112534
131.0,0.51171875,-262314.172067,86142.371433,-1634347.395223,30191.484713,-1509179.414413,-1890477.465448,-2298681.294761,-2547473.91313,-3510554.434127,-2468665.23846,-2474318.262853,-2441320.650735,-2449187.034272,24042.251592,-2543253.188521,-2525025.966767
132.0,0.515625,-262439.163022,86274.872574,-1634446.100527,30246.738225,-1509203.017855,-1890499.996006,-2298891.579973,-2547489.469944,-3510564.626523,-2468685.086809,-2474340.25697,-2441334.061782,-2449181.133411,23932.817451,-2543266.063126,-2525042.060023
133.0,0.51953125,-262263.21009,86325.834552,-1634370.998665,30321.840086,-1509194.971227,-1890483.366309,-2298677.003226,-2547483.032642,-3510552.824802,-2468684.550367,-2474333.283226,-2441320.650735,-2449268.573435,24325.492898,-2543271.427545,-2525033.476953
134.0,0.5234375,-262165.57767,85824.797848,-1634333.984176,30252.639085,-1509183.169506,-1890470.491704,-2298492.467224,-2547460.502083,-3510535.12222,-2468659.337599,-2474301.096714,-2441299.19306,-2449325.972715,24505.200923,-2543241.923242,-2525009.337069
135.0,0.52734375,-260684.998117,84115.157618,-1628180.995963,28829.995254,-1500844.180685,-1882202.849651,-2292702.113712,-2539224.5101,-3502399.981308,-2460345.561546,-2466020.580056,-2433016.530635,-2440812.103845,22996.189951,-2534983.937142,-2516780.855272
136.0,0.53125,-259437.234335,82969.31779,-1622350.409311,27641.776519,-1494512.557329,-1876023.575786,-2287480.388579,-2533006.612421,-3496378.957794,-2454037.541632,-2459872.419819,-2426862.469538,-2432174.316904,21953.346962,-2528878.692255,-2510683.657012
137.0,0.53515625,-262492.807209,86323.688784,-1632250.443965,30207.577969,-1508908.51127,-1890343.354981,-2297126.686231,-2547157.94887,-3510373.116776,-2468318.697014,-2474148.747223,-2441154.890198,-2446077.817211,24111.989035,-2543098.156822,-2524878.445253
138.0,0.5390625,-262364.597602,86266.825946,-1632331.446687,30235.472946,-1509210.528041,-1890601.383519,-2297115.420951,-2547468.548711,-3510631.681756,-2468636.807041,-2474404.629994,-2441408.090759,-2447382.443831,24329.247991,-2543362.622662,-2525142.911094
139.0,0.54296875,-262468.130883,86044.739013,-1632510.618271,30101.362479,-1509222.329762,-1890595.482659,-2297347.70028,-2547480.350432,-3510626.853779,-2468644.317227,-2474383.172319,-2441394.679713,-2447856.122,24066.927918,-2543330.972592,-2525120.916977
140.0,0.546875,-262644.083815,86082.289944,-1632779.375646,30090.633642,-1509242.714553,-1890598.70131,-2297730.719773,-2547495.907247,-3510614.515616,-2468660.946925,-2474383.708761,-2441388.778852,-2448176.914236,23801.389194,-2543311.660685,-2525107.50593
141.0,0.55078125,-262549.133605,86233.56655,-1632913.486113,30187.729619,-1509245.396763,-1890581.53517,-2297738.229959,-2547501.808107,-3510599.495244,-2468678.649506,-2474377.807901,-2441375.904247,-2448554.56931,23984.852312,-2543309.514917,-2525097.313535
142.0,0.5546875,-262351.722998,86131.642596,-1632999.853253,30168.417712,-1509236.277251,-1890560.613937,-2297548.86598,-2547499.66234,-3510586.084197,-2468674.357971,-2474356.886668,-2441357.665224,-2448804.55122,24227.324036,-2543310.587801,-2525081.220279
143.0,0.55859375,-262441.308789,85896.144616,-1633240.715652,30034.307246,-1509220.183995,-1890543.98424,-2297729.646889,-2547476.058898,-3510565.162964,-2468644.317227,-2474326.845923,-2441335.671107,-2448909.157385,24036.887173,-2543276.791963,-2525051.179534
144.0,0.5625,-262656.95842,85878.442035,-1633525.566283,29899.123895,-1509220.183995,-1890543.98424,-2298126.61387,-2547469.085153,-3510555.507011,-2468636.807041,-2474319.335737,-2441326.015154,-2448926.859966,23825.529078,-2543248.896986,-2525036.695604
145.0,0.56640625,-262632.282094,86044.739013,-1633659.140308,29924.336663,-1509231.985716,-1890553.640193,-2298179.185173,-2547489.469944,-3510567.845174,-2468671.13932,-2474333.819668,-2441336.207549,-2449042.731409,24056.735522,-2543252.652079,-2525050.106651
146.0,0.5703125,-262421.996882,85988.412617,-1633676.842889,30131.403223,-1509224.47553,-1890539.692705,-2297939.395659,-2547487.860619,-3510558.18922,-2468672.748646,-2474324.163714,-2441327.624479,-2449182.742737,24138.811128,-2543256.943614,-2525044.20579
147.0,0.57421875,-262469.740208,85751.841754,-1633832.947473,30020.359757,-1509207.30939,-1890527.890984,-2298010.742427,-2547468.012269,-3510536.731546,-2468638.416366,-2474292.513644,-2441309.921898,-2449198.299551,24015.96594,-2543228.512195,-2525017.920139
148.0,0.578125,-262693.436467,85688.005172,-1634063.617475,29953.840965,-1509226.621297,-1890551.494426,-2298387.86106,-2547478.741107,-3510556.579895,-2468644.317227,-2474306.461132,-2441323.869386,-2449142.509597,23675.325355,-2543224.22066,-2525028.112534
149.0,0.58203125,-262721.867886,85859.130127,-1634165.54143,30042.353874,-1509234.667925,-1890552.030868,-2298503.732503,-2547483.569084,-3510550.142592,-2468657.728274,-2474314.50776,-2441319.577851,-2449232.63183,23717.167821,-2543231.194405,-2525030.258302
150.0,0.5859375,-262506.218255,85852.692825,-1634126.917616,30076.149711,-1509243.787437,-1890552.030868,-2298253.214151,-2547499.125898,-3510555.507011,-2468673.82153,-2474321.481505,-2441327.088037,-2449374.252483,24017.038824,-2543261.235149,-2525043.132906
151.0,0.58984375,-262481.541929,85625.241473,-1634194.509291,29965.106245,-1509242.178111,-1890555.249519,-2298231.756476,-2547499.125898,-3510564.626523,-2468665.23846,-2474316.117086,-2441330.306689,-2449387.127088,24076.04743,-2543259.625823,-2525040.450697
152.0,0.59375,-262699.337327,85508.833588,-1634394.602107,29873.374685,-1509264.70867,-1890583.144496,-2298570.787736,-2547510.391177,-3510579.646895,-2468671.675762,-2474325.236598,-2441347.472828,-2449289.494668,23768.66624,-2543245.141893,-2525052.252418
153.0,0.59765625,-262786.24091,85661.183078,-1634502.963364,29942.039244,-1509260.953577,-1890577.780077,-2298741.37625,-2547501.808107,-3510565.699406,-2468670.066437,-2474320.945063,-2441336.743991,-2449294.322645,23601.296377,-2543234.413056,-2525044.20579
154.0,0.6015625,-262597.413373,85705.707753,-1634434.298806,29998.36564,-1509245.396763,-1890553.103751,-2298499.97741,-2547487.860619,-3510545.851057,-2468660.410483,-2474303.242481,-2441316.3592,-2449439.698391,23895.802962,-2543234.413056,-2525028.648976
155.0,0.60546875,-262540.550535,85494.349658,-1634439.126782,29807.928778,-1509237.350135,-1890547.739333,-2298383.569525,-2547482.4962,-3510541.02308,-2468644.317227,-2474288.222109,-2441309.385456,-2449472.421345,23949.983591,-2543231.730846,-2525019.529464
156.0,0.609375,-262743.862002,85335.026423,-1634586.111854,29676.50052,-1509251.834065,-1890574.561426,-2298667.347272,-2547497.516572,-3510558.18922,-2468647.535878,-2474301.096714,-2441331.379572,-2449388.736414,23616.31675,-2543233.876614,-2525032.404069
157.0,0.61328125,-262877.972469,85460.55382,-1634690.718018,29875.520453,-1509246.469646,-1890572.9521,-2298889.970647,-2547488.39706,-3510543.168848,-2468641.635018,-2474296.268737,-2441316.895642,-2449359.232111,23511.174144,-2543220.465567,-2525022.211674
158.0,0.6171875,-262713.821258,85551.212496,-1634619.907691,29956.523175,-1509245.396763,-1890563.832589,-2298686.65918,-2547493.761479,-3510544.778174,-2468656.118948,-2474297.341621,-2441312.604107,-2449447.745019,23951.592916,-2543231.194405,-2525027.03965
159.0,0.62109375,-262580.783675,85373.113796,-1634579.13811,29888.9315,-1509225.011972,-1890540.765588,-2298496.222317,-2547474.449572,-3510532.440011,-2468631.442622,-2474271.592411,-2441298.120177,-2449504.607857,23962.321754,-2543207.05452,-2525007.727743
160.0,0.625,-262559.326,84979.901907,-1633919.314613,29611.591054,-1508147.300261,-1889479.147134,-2297964.608427,-2546397.810745,-3509471.89444,-2467541.92919,-2473189.589165,-2440223.627117,-2448405.974913,23478.987632,-2542118.077531,-2523931.625358
161.0,0.62890625,-259413.630892,81615.87496,-1621872.97605,27031.842116,-1492542.742794,-1874032.840017,-2286677.335105,-2531026.069048,-3494329.21342,-2452028.566841,-2457768.494817,-2424776.783559,-2431836.89497,21290.304815,-2526764.038415,-2508607.090546
162.0,0.6328125,-261655.421454,83753.5958,-1628548.995083,28827.313045,-1503429.830483,-1884945.140474,-2293295.954859,-2541747.932642,-3505037.129526,-2462814.267017,-2468670.602878,-2435691.229783,-2440407.626677,22950.055951,-2537644.15236,-2519453.408653
163.0,0.63671875,-262836.666445,85336.635749,-1632525.638643,29868.546709,-1509306.014694,-1890747.295707,-2297090.744625,-2547516.828479,-3510690.153919,-2468641.098576,-2474438.425832,-2441469.781574,-2447101.348293,23890.974985,-2543392.663406,-2525202.992583
164.0,0.640625,-262944.491261,85192.869329,-1632636.145668,29732.826916,-1509315.134205,-1890728.520242,-2297284.936581,-2547530.239526,-3510662.795384,-2468646.999436,-2474405.702878,-2441444.032364,-2447768.681975,23632.410006,-2543349.211615,-2525174.024722
165.0,0.64453125,-263117.225542,85219.691422,-1632884.518252,29716.73366,-1509317.279973,-1890707.062567,-2297675.46626,-2547528.093759,-3510635.436849,-2468646.999436,-2474379.417226,-2441414.528062,-2448146.873492,23353.460235,-2543301.468289,-2525137.546675
166.0,0.6484375,-263028.176192,85379.014656,-1633020.238044,29814.36608,-1509283.484135,-1890650.736171,-2297695.314609,-2547495.907247,-3510581.25622,-2468626.078203,-2474333.283226,-2441356.055898,-2448500.925124,23527.803842,-2543258.55294,-2525081.220279
167.0,0.65234375,-262810.917236,85288.892423,-1633103.922976,29800.418592,-1509298.504507,-1890653.954822,-2297497.904002,-2547517.901363,-3510591.985058,-2468653.436739,-2474341.329854,-2441365.17541,-2448792.749499,23789.051031,-2543284.302149,-2525089.266907
168.0,0.65625,-262880.654678,85049.63935,-1633357.659979,29669.526776,-1509301.186717,-1890655.027706,-2297670.638284,-2547516.828479,-3510595.203709,-2468647.535878,-2474328.991691,-2441362.493201,-2448865.705593,23741.844146,-2543265.526684,-2525080.683837
169.0,0.66015625,-263093.6221,85024.963024,-1633661.822517,29573.503682,-1509310.84267,-1890666.829427,-2298075.115451,-2547520.583572,-3510594.667267,-2468649.681646,-2474330.064574,-2441364.638968,-2448901.110757,23330.393235,-2543239.241033,-2525075.85586
170.0,0.6640625,-263071.627983,85195.551538,-1633805.052496,29557.410426,-1509295.285856,-1890643.225985,-2298155.581731,-2547509.854735,-3510563.553639,-2468644.317227,-2474315.044202,-2441337.816875,-2449032.002572,23388.865398,-2543223.684218,-2525053.861744
171.0,0.66796875,-262850.613934,85155.318398,-1633827.046612,29747.847289,-1509266.317995,-1890609.430147,-2297924.375287,-2547491.07927,-3510542.095964,-2468628.223971,-2474286.076341,-2441309.385456,-2449175.768992,23678.544006,-2543217.783358,-2525030.258302
172.0,0.671875,-262881.727562,84924.648395,-1633974.568126,29650.751311,-1509267.927321,-1890612.112357,-2297988.211869,-2547488.39706,-3510543.168848,-2468614.276482,-2474274.27462,-2441309.921898,-2449152.16555,23583.593796,-2543212.418939,-2525024.357441
173.0,0.67578125,-263106.496704,84851.692301,-1634221.331384,29579.404542,-1509286.702786,-1890635.715799,-2298359.429641,-2547496.98013,-3510549.069708,-2468617.495134,-2474283.394132,-2441321.187177,-2449077.063689,23256.364257,-2543204.908753,-2525030.258302
174.0,0.6796875,-263138.683216,85025.499466,-1634345.785897,29669.526776,-1509313.52488,-1890655.027706,-2298483.884154,-2547517.901363,-3510571.063825,-2468656.65539,-2474313.434877,-2441340.499084,-2449185.424946,23462.894376,-2543225.293544,-2525055.471069
175.0,0.68359375,-262927.325121,85034.082536,-1634313.599385,29709.223474,-1509308.160461,-1890639.470892,-2298240.875988,-2547516.828479,-3510565.699406,-2468659.874041,-2474305.388249,-2441329.770247,-2449318.998971,23660.841425,-2543224.757102,-2525049.570209
176.0,0.6875,-262905.867446,84811.459161,-1634392.45634,29600.862217,-1509301.186717,-1890634.106473,-2298204.934383,-2547509.318293,-3510559.262104,-2468642.171459,-2474287.685667,-2441324.94227,-2449317.926087,23566.964098,-2543216.710474,-2525039.377813
177.0,0.69140625,-263120.980635,84689.150416,-1634595.231366,29505.375565,-1509288.848554,-1890629.814938,-2298536.991899,-2547488.39706,-3510545.314615,-2468612.667157,-2474265.69155,-2441309.921898,-2449233.704714,23223.104861,-2543180.232427,-2525017.920139
178.0,0.6953125,-263211.63931,84842.572789,-1634697.691762,29575.113007,-1509282.947693,-1890621.76831,-2298718.845692,-2547478.741107,-3510529.757801,-2468609.448506,-2474261.400016,-2441296.510851,-2449251.943738,23170.533558,-2543168.430706,-2525006.654859
179.0,0.69921875,-263014.765145,84895.144092,-1634629.563645,29497.328937,-1509289.921437,-1890622.304752,-2298484.957038,-2547493.225037,-3510534.049336,-2468628.223971,-2474272.665295,-2441304.021037,-2449350.649041,23467.185911,-2543196.862125,-2525019.529464
180.0,0.703125,-262921.42426,84693.978392,-1634626.881436,29446.903401,-1509278.119716,-1890615.86745,-2298356.21099,-2547490.542828,-3510534.049336,-2468617.495134,-2474260.863574,-2441301.87527,-2449368.888064,23620.071843,-2543198.471451,-2525015.237929
181.0,0.70703125,-263110.788239,84519.098344,-1634786.20467,29478.01703,-1509281.338368,-1890629.814938,-2298637.84297,-2547488.933502,-3510538.877313,-2468609.984947,-2474257.644922,-2441304.557479,-2449284.13025,23371.699258,-2543172.722241,-2525013.092162
182.0,0.7109375,-263245.97159,84371.040388,-1634897.248137,29524.687472,-1509263.099344,-1890612.112357,-2298879.24181,-2547458.356316,-3510505.081475,-2468582.626412,-2474230.286387,-2441271.834525,-2449235.31404,23092.749487,-2543130.879775,-2524979.832766
183.0,0.71484375,-263105.423821,84485.302506,-1634824.828485,29602.471543,-1509280.265484,-1890618.549659,-2298683.97697,-2547469.621595,-3510508.836568,-2468599.792552,-2474239.405899,-2441272.907409,-2449308.806575,23357.75177,-2543158.238311,-2524988.952278
184.0,0.71875,-263003.499866,84700.415695,-1634777.085158,29540.244286,-1509290.994321,-1890628.742055,-2298483.347712,-2547478.204665,-3510520.63829,-2468603.011203,-2474241.015225,-2441286.318455,-2449388.736414,23502.591074,-2543176.477334,-2524999.144673
185.0,0.72265625,-263167.651077,84533.582274,-1634890.810834,29417.93554,-1509292.603647,-1890639.470892,-2298703.825319,-2547472.840246,-3510519.565406,-2468585.308622,-2474234.577922,-2441290.073549,-2449295.395529,23217.740442,-2543160.384078,-2524993.780255
186.0,0.7265625,-262055.070645,83311.567701,-1630156.711359,28446.439319,-1502822.57829,-1884220.943954,-2294357.036872,-2541082.208286,-3504198.134446,-2462143.178242,-2467810.686566,-2434854.380471,-2442709.498728,22222.640779,-2536755.804629,-2518606.366945
187.0,0.73046875,-259830.982665,81136.295931,-1621722.235885,26794.198369,-1493137.120382,-1874697.491491,-2286441.837125,-2531571.093985,-3494906.424869,-2452526.921335,-2458334.440986,-2425357.213659,-2431012.920262,21287.086163,-2527352.515143,-2509202.541018
188.0,0.734375,-263020.129564,84456.334645,-1632197.33622,29356.781168,-1508506.17987,-1889998.422861,-2296543.037479,-2546683.197818,-3509887.636887,-2467760.26103,-2473591.920566,-2440647.416192,-2445517.23546,23434.999399,-2542552.595443,-2524377.944991
189.0,0.73828125,-263291.569148,84470.818576,-1632801.369763,29404.524494,-1509326.935926,-1890778.945777,-2297268.843325,-2547490.542828,-3510637.046175,-2468574.043342,-2474350.985807,-2441412.918736,-2447184.496782,23269.775304,-2543295.567429,-2525144.520419
190.0,0.7421875,-263462.157662,84491.203367,-1632999.853253,29384.139703,-1509326.935926,-1890754.805893,-2297639.524655,-2547492.152154,-3510602.713895,-2468576.725552,-2474325.236598,-2441378.050015,-2447748.833626,22984.924672,-2543245.141893,-2525105.896605
191.0,0.74609375,-263377.936289,84649.990159,-1633114.651813,29480.699239,-1509353.221578,-1890755.342335,-2297667.956074,-2547521.120014,-3510601.10457,-2468619.104459,-2474336.501877,-2441380.195782,-2448201.05412,23147.466558,-2543258.55294,-2525109.115256
192.0,0.75,-263167.114635,84566.84167,-1633187.607907,29470.506843,-1509328.00881,-1890712.963428,-2297475.909886,-2547499.125898,-3510570.527383,-2468601.938319,-2474295.732295,-2441338.353317,-2448549.204892,23436.608724,-2543236.558823,-2525068.882116
193.0,0.75390625,-263244.362264,84331.34369,-1633431.152514,29339.615028,-1509314.597763,-1890697.943055,-2297641.670423,-2547483.032642,-3510551.751918,-2468578.871319,-2474264.082225,-2441319.041409,-2448659.711916,23378.673003,-2543194.179916,-2525038.841371
194.0,0.7578125,-263453.574592,84300.766504,-1633737.997262,29292.944585,-1509317.816415,-1890699.552381,-2298042.928939,-2547478.741107,-3510539.413755,-2468572.434017,-2474255.499155,-2441309.385456,-2448713.356103,22932.353369,-2543160.92052,-2525026.503208
195.0,0.76171875,-263434.799127,84475.110111,-1633897.856939,29390.577005,-1509307.624019,-1890675.412497,-2298130.368964,-2547461.574967,-3510510.445894,-2468568.142482,-2474238.333015,-2441282.026921,-2448845.320802,23016.574742,-2543144.290822,-2525002.899766
196.0,0.765625,-263212.712194,84448.288017,-1633930.579892,29409.352471,-1509292.603647,-1890649.663287,-2297907.745589,-2547454.064781,-3510496.498406,-2468562.778063,-2474221.166876,-2441266.470106,-2449000.352502,23311.617769,-2543149.655241,-2524987.342952
197.0,0.76953125,-263230.414776,84222.445991,-1634089.903127,29258.612306,-1509306.014694,-1890664.68366,-2297959.78045,-2547466.402944,-3510508.836568,-2468562.778063,-2474223.849085,-2441277.735386,-2449032.539014,23228.46928,-2543156.092543,-2524993.780255
198.0,0.7734375,-263444.455081,84141.443269,-1634342.030804,29064.956792,-1509289.921437,-1890660.392125,-2298335.289757,-2547449.236804,-3510490.597545,-2468537.565295,-2474207.219387,-2441262.715013,-2448957.437153,22887.828694,-2543121.223822,-2524972.32258
199.0,0.77734375,-263485.761104,84313.104667,-1634459.511573,29312.256493,-1509285.093461,-1890652.881939,-2298479.592619,-2547444.945269,-3510480.941591,-2468542.929714,-2474207.755829,-2441255.204827,-2448997.133851,22928.061834,-2543118.541612,-2524965.885277
200.0,0.78125,-263270.111474,84332.953016,-1634417.669108,29383.066819,-1509281.874809,-1890639.470892,-2298241.41243,-2547442.26306,-3510478.795824,-2468550.976342,-2474200.782085,-2441245.548874,-2449097.984922,23422.661236,-2543123.369589,-2524962.130184
201.0,0.78515625,-263245.97159,84117.303385,-1634480.969248,29282.75219,-1509298.504507,-1890659.319241,-2298200.106406,-2547458.356316,-3510502.935708,-2468560.095854,-2474209.365154,-2441264.324339,-2449133.926527,23288.014327,-2543131.952659,-2524977.686999
202.0,0.7890625,-263457.866127,83994.99464,-1634677.306971,29187.80198,-1509315.670647,-1890683.995567,-2298530.554596,-2547468.012269,-3510512.05522,-2468560.632296,-2474216.875341,-2441279.344711,-2449095.302712,22881.391392,-2543123.906031,-2524986.80651
203.0,0.79296875,-263549.597686,84148.417014,-1634795.324182,29258.075864,-1509299.577391,-1890666.292985,-2298729.038087,-2547445.481711,-3510484.160243,-2468545.611923,-2474199.709201,-2441254.131943,-2449073.845038,22819.700577,-2543098.693263,-2524963.203068
204.0,0.796875,-263354.869289,84217.081573,-1634733.633367,29325.667539,-1509280.265484,-1890639.470892,-2298509.096922,-2547430.997781,-3510465.921219,-2468536.492412,-2474183.615945,-2441232.137827,-2449163.967271,23115.816488,-2543101.375473,-2524949.792021
205.0,0.80078125,-263251.87245,84026.108268,-1634730.951158,29193.70284,-1509311.915554,-1890667.365869,-2298369.085594,-2547465.33006,-3510498.644173,-2468562.778063,-2474208.828713,-2441264.324339,-2449194.544458,23239.198117,-2543139.462845,-2524983.051417
206.0,0.8046875,-263431.580476,83859.811289,-1634882.227764,28956.595535,-1509330.691019,-1890700.088823,-2298644.816714,-2547486.787735,-3510525.466266,-2468574.579784,-2474226.531294,-2441291.146432,-2449148.946899,23069.682487,-2543136.244194,-2525001.826883
207.0,0.80859375,-263569.982477,83979.437826,-1634995.416998,29186.729096,-1509321.571508,-1890693.115079,-2298895.335066,-2547474.986014,-3510509.909452,-2468569.215366,-2474217.948224,-2441276.662502,-2449128.562108,22764.447065,-2543106.20345,-2524986.80651
208.0,0.8125,-263420.851638,83955.834383,-1634932.116858,29297.23612,-1509341.956299,-1890708.671893,-2298713.481273,-2547494.834363,-3510520.63829,-2468596.573901,-2474236.187248,-2441291.682874,-2449199.908876,23004.773021,-2543142.681496,-2525006.654859
209.0,0.81640625,-263302.297986,83577.642867,-1634884.909974,29240.373282,-1509315.134205,-1890677.558264,-2298506.414712,-2547459.965641,-3510488.451778,-2468554.731435,-2474194.344782,-2441254.668385,-2449217.611458,23165.16914,-2543120.150938,-2524972.32258
210.0,0.8203125,-263459.475453,83781.490777,-1634989.516138,29116.455211,-1509314.061322,-1890685.068451,-2298716.699924,-2547448.16392,-3510487.915336,-2468537.028854,-2474182.543061,-2441252.522618,-2449186.49783,22887.828694,-2543101.911915,-2524961.593743
211.0,0.82421875,-263636.501269,83947.251314,-1635110.215558,29127.184049,-1509331.763903,-1890705.989683,-2299004.232765,-2547457.283432,-3510494.88908,-2468547.221249,-2474198.099875,-2441263.787897,-2449137.68162,22666.278203,-2543105.130566,-2524973.395464
212.0,0.828125,-261880.190597,82412.491132,-1628913.239111,27961.495872,-1501162.827154,-1882599.28019,-2293059.383995,-2539405.29101,-3502524.435821,-2460435.683779,-2466101.582778,-2433147.958892,-2440910.809149,21886.291729,-2535054.747469,-2516924.08525
213.0,0.83203125,-260149.629134,80578.932831,-1622394.933986,26637.557344,-1494273.840698,-1875872.299179,-2286946.628922,-2532657.388766,-3495988.428114,-2453584.784697,-2459404.106069,-2426445.117765,-2431776.277039,21311.762489,-2528431.299738,-2510294.736659
214.0,0.8359375,-263539.941733,83708.534683,-1632672.087273,29024.18721,-1509008.825899,-1890529.500309,-2297008.66902,-2547127.371684,-3510313.571729,-2468174.394151,-2474008.735896,-2441088.907848,-2445837.491255,22937.717788,-2542948.489541,-2524811.39002
215.0,0.83984375,-263794.75162,83834.598522,-1633021.310928,29089.096676,-1509377.361462,-1890856.729848,-2297593.390655,-2547490.542828,-3510613.442733,-2468545.611923,-2474325.236598,-2441400.580573,-2447050.922757,22659.304459,-2543238.704591,-2525130.036489
216.0,0.84375,-263701.947177,83998.213291,-1633091.048371,29187.265538,-1509346.247834,-1890791.820382,-2297613.239004,-2547464.793618,-3510552.824802,-2468537.565295,-2474272.665295,-2441335.671107,-2447648.518997,22811.653949,-2543183.451078,-2525069.418558
217.0,0.84765625,-263470.20429,83925.793639,-1633144.156116,29182.974003,-1509365.023299,-1890785.38308,-2297408.318211,-2547489.469944,-3510559.262104,-2468567.60604,-2474273.201737,-2441334.598224,-2448129.707352,23076.656231,-2543201.15366,-2525067.27279
218.0,0.8515625,-263526.530686,83695.660078,-1633387.164281,29057.446606,-1509371.460601,-1890786.455963,-2297560.131259,-2547494.834363,-3510557.116336,-2468561.705179,-2474261.400016,-2441329.770247,-2448341.601889,22923.770299,-2543186.133288,-2525052.252418
219.0,0.85546875,-263736.279456,83661.86424,-1633706.347192,29006.484628,-1509356.440229,-1890768.21694,-2297978.555915,-2547471.230921,-3510523.320499,-2468537.028854,-2474232.968597,-2441300.802386,-2448454.791123,22599.759412,-2543138.926403,-2525016.310813
220.0,0.859375,-263728.76927,83839.426498,-1633888.200985,29105.189932,-1509350.002927,-1890750.514358,-2298092.281591,-2547462.647851,-3510502.935708,-2468541.320388,-2474221.703317,-2441278.271827,-2448583.000729,22685.59011,-2543128.734008,-2525000.217557
221.0,0.86328125,-263498.635709,83815.823056,-1633937.017195,29126.647607,-1509330.154578,-1890718.327846,-2297871.267542,-2547449.236804,-3510479.868708,-2468530.055109,-2474197.026991,-2441255.204827,-2448736.423103,23065.927394,-2543121.760264,-2524977.150557
222.0,0.8671875,-263492.734849,83587.835263,-1634103.314174,28998.974442,-1509352.148694,-1890739.249079,-2297917.937984,-2547469.085153,-3510508.836568,-2468549.367016,-2474210.97448,-2441279.344711,-2448816.352942,23087.385069,-2543126.051799,-2524994.853138
223.0,0.87109375,-263704.629386,83505.759657,-1634358.660502,28736.654369,-1509388.626741,-1890783.773754,-2298293.447291,-2547503.417433,-3510542.632406,-2468573.5069,-2474242.088108,-2441313.140549,-2448803.478337,22577.765295,-2543136.244194,-2525024.893883
224.0,0.875,-263752.909154,83675.811729,-1634508.327783,28961.959954,-1509387.017415,-1890782.70087,-2298455.989177,-2547506.636084,-3510535.658662,-2468584.235738,-2474245.30676,-2441307.239688,-2448851.221663,22577.765295,-2543137.85352,-2525022.748115
225.0,0.87890625,-263547.988361,83706.925357,-1634498.67183,29116.455211,-1509373.069927,-1890760.170312,-2298229.610709,-2547496.98013,-3510516.883196,-2468578.334877,-2474228.677062,-2441289.000665,-2448950.463408,22886.219369,-2543141.608613,-2525008.264185
226.0,0.8828125,-262722.404328,82688.222252,-1631741.897075,28419.617226,-1505388.379739,-1886818.395474,-2295499.658048,-2543582.563827,-3506662.548383,-2464623.148992,-2470275.636944,-2437339.179199,-2445144.944804,22460.284526,-2539219.145682,-2521089.019905
227.0,0.88671875,-250606.328321,69728.323189,-1597760.987015,20055.415637,-1460355.694336,-1842073.779353,-2265385.957406,-2501822.173813,-3468083.795081,-2422298.958576,-2428283.504043,-2395207.571412,-2401879.298911,15701.117003,-2497603.058529,-2479499.218404
228.0,0.890625,-257062.40619,75713.94154,-1612706.257427,24359.288735,-1486618.815257,-1863843.663197,-2280700.836265,-2527568.701216,-3493829.2496,-2448211.782958,-2454632.992105,-2421606.948567,-2417152.871746,19126.834765,-2523887.100683,-2505722.106185
229.0,0.89453125,-264142.902391,83748.767823,-1627377.942488,29156.151909,-1509491.623579,-1888064.549931,-2293434.893302,-2547571.009108,-3511030.258063,-2468569.215366,-2474786.576603,-2441867.284997,-2438350.90856,22980.633137,-2543746.178597,-2525638.583379
230.0,0.8984375,-263893.993365,83607.683612,-1627388.134883,29073.539862,-1509454.072649,-1890552.030868,-2293410.753418,-2547538.286154,-3510840.894084,-2468547.757691,-2474596.13974,-2441667.728623,-2442137.651698,23035.350208,-2543540.18492,-2525456.193144
231.0,0.90234375,-263983.579157,83419.392517,-1627970.174309,28946.939581,-1509452.999765,-1891055.213339,-2293941.830867,-2547542.041247,-3510759.891362,-2468556.340761,-2474506.017507,-2441571.705529,-2444158.428211,22697.391832,-2543416.80329,-2525346.222561
232.0,0.90625,-264071.019181,83521.852913,-1628687.933527,28979.662535,-1509442.80737,-1891012.297989,-2294509.386362,-2547537.749712,-3510691.226803,-2468564.387389,-2474441.644483,-2441497.676551,-2445414.775063,22518.220248,-2543330.972592,-2525258.246095
233.0,0.91015625,-263876.290783,83637.187915,-1629288.211976,29067.102559,-1509414.912392,-1890937.73257,-2294671.391806,-2547517.901363,-3510623.098686,-2468559.559412,-2474378.880784,-2441423.111132,-2446307.950772,22768.202158,-2543274.109754,-2525179.389141
234.0,0.9140625,-263681.562386,83484.301982,-1629877.225146,29013.458373,-1509395.600485,-1890888.91636,-2294771.706435,-2547505.5632,-3510586.084197,-2468554.731435,-2474334.892551,-2441380.195782,-2446964.555617,22962.930556,-2543241.923242,-2525130.572931
235.0,0.91796875,-263802.798248,83280.454073,-1630584.791968,28886.858092,-1509390.236067,-1890872.823104,-2295256.113441,-2547495.907247,-3510567.308732,-2468547.757691,-2474304.851807,-2441357.128782,-2447337.919156,22852.959973,-2543192.57059,-2525094.094884
236.0,0.921875,-263969.631668,83344.827097,-1631252.662093,28894.368278,-1509402.037788,-1890872.823104,-2295822.596052,-2547501.271665,-3510561.407871,-2468562.778063,-2474301.633156,-2441348.00927,-2447572.344252,22469.404038,-2543160.92052,-2525080.683837
237.0,0.92578125,-263686.926804,83328.197399,-1631037.548904,28865.400417,-1508455.217893,-1889910.982837,-2295348.381442,-2546560.889073,-3509611.369325,-2467632.051424,-2473348.9124,-2440383.486793,-2446974.211571,22532.167737,-2542217.319276,-2524123.671546
238.0,0.9296875,-260253.698856,79841.861706,-1619749.73914,26343.587201,-1492972.969171,-1874530.121628,-2284392.092752,-2531321.112075,-3494582.950423,-2452250.653774,-2458039.39796,-2425054.124004,-2430985.025285,20835.938553,-2527002.755046,-2508915.544619
239.0,0.93359375,-262563.617535,81683.466635,-1626247.123032,27784.470056,-1503291.428482,-1884895.251381,-2290773.6052,-2541474.34729,-3504750.133127,-2462456.460292,-2468369.122549,-2435413.352896,-2438764.505239,21964.612241,-2537293.855821,-2519195.916557
240.0,0.9375,-264138.610856,83257.387073,-1630835.31032,28853.598696,-1509441.198044,-1890998.350501,-2295349.454325,-2547501.808107,-3510657.430966,-2468552.585668,-2474407.848645,-2441459.589179,-2445688.896857,22435.608201,-2543277.328405,-2525200.310373
241.0,0.94140625,-264043.124204,83432.803563,-1631112.650765,28953.376884,-1509457.2913,-1890968.846198,-2295533.990328,-2547525.947991,-3510629.535989,-2468594.964575,-2474391.218947,-2441426.866225,-2446627.670124,22575.619528,-2543258.016498,-2525177.243373
242.0,0.9453125,-263792.06941,83372.722074,-1631385.163234,28957.668419,-1509459.437067,-1890937.196128,-2295487.856327,-2547540.431922,-3510609.151198,-2468614.276482,-2474367.615505,-2441401.117015,-2447259.062202,22850.277764,-2543250.506312,-2525151.494163
243.0,0.94921875,-263815.136411,83144.197839,-1631831.482867,28833.750347,-1509437.442951,-1890904.473174,-2295780.753586,-2547518.974247,-3510574.818918,-2468583.699296,-2474321.481505,-2441363.566084,-2447602.384997,22713.485088,-2543201.690102,-2525102.677954
244.0,0.953125,-264015.765669,83104.501141,-1632341.102641,28779.033277,-1509444.953137,-1890905.009616,-2296338.116686,-2547519.510689,-3510564.626523,-2468584.235738,-2474312.898435,-2441356.055898,-2447791.748976,22390.010642,-2543173.795125,-2525086.048256
245.0,0.95703125,-264009.328366,83289.573585,-1632700.518692,28878.275022,-1509451.390439,-1890895.353662,-2296598.827433,-2547525.411549,-3510553.897685,-2468603.011203,-2474312.898435,-2441343.717735,-2448002.034188,22489.252387,-2543171.112915,-2525075.85586
246.0,0.9609375,-263783.48634,83282.063399,-1632893.637764,28912.07086,-1509433.687858,-1890864.240034,-2296515.678944,-2547510.927619,-3510535.12222,-2468601.401878,-2474287.685667,-2441315.822758,-2448246.115237,23004.773021,-2543157.165427,-2525051.715976
247.0,0.96484375,-263785.095666,83065.877326,-1633187.071465,28805.85537,-1509436.906509,-1890863.703592,-2296669.101318,-2547509.854735,-3510538.877313,-2468595.501017,-2474275.883946,-2441314.749874,-2448363.059564,22808.97174,-2543136.244194,-2525047.424441
248.0,0.96875,-263999.135971,82983.801721,-1633562.580772,28648.141461,-1509422.422579,-1890852.438313,-2297144.925254,-2547487.860619,-3510514.200987,-2468568.142482,-2474253.889829,-2441293.828642,-2448373.788401,22398.05727,-2543096.011054,-2525019.529464
249.0,0.97265625,-264050.63439,83160.291095,-1633812.562682,28679.791532,-1509427.786997,-1890857.802732,-2297420.119932,-2547496.443688,-3510511.518778,-2468585.308622,-2474264.618667,-2441295.437967,-2448409.730006,22400.739479,-2543102.448356,-2525020.065906
250.0,0.9765625,-263830.693225,83208.570863,-1633891.419636,28904.024232,-1509417.05816,-1890838.490825,-2297291.910326,-2547493.761479,-3510498.107731,-2468586.917947,-2474249.598294,-2441282.026921,-2448544.376915,22715.630855,-2543112.10431,-2525011.482836
251.0,0.98046875,-263779.731247,83011.696698,-1634033.576731,28821.948626,-1509420.813253,-1890842.245918,-2297312.295116,-2547493.225037,-3510500.78994,-2468581.553528,-2474243.160992,-2441286.318455,-2448659.711916,22753.181786,-2543114.786519,-2525008.800627
252.0,0.984375,-263982.506273,82881.877766,-1634295.360362,28724.316206,-1509406.865764,-1890832.589964,-2297717.845168,-2547470.158037,-3510485.769568,-2468550.976342,-2474221.166876,-2441267.006548,-2448606.06773,22425.415805,-2543078.844914,-2524984.124301
253.0,0.98828125,-264087.648879,83033.154372,-1634482.042132,28789.225672,-1509411.693741,-1890832.589964,-2298019.861939,-2547468.012269,-3510482.014475,-2468555.267877,-2474224.921969,-2441258.95992,-2448594.802451,22341.730874,-2543074.553379,-2524982.514975
254.0,0.9921875,-263899.357784,83124.885932,-1634481.50569,28866.473301,-1509414.375951,-1890826.689103,-2297889.506565,-2547476.058898,-3510483.623801,-2468574.579784,-2474231.359271,-2441260.032804,-2448687.606893,22740.307181,-2543094.93817,-2524989.48872
255.0,0.99609375,-263772.221061,82955.906744,-1634516.374411,28799.95451,-1509429.396323,-1890841.709476,-2297801.530099,-2547493.761479,-3510504.545034,-2468589.600156,-2474241.551666,-2441280.417595,-2448777.192685,22903.385508,-2543107.812775,-2525007.727743
0.0,1.0,0.0,0.0,0.0,0.0,0.0,0.0,0.0,0.0,0.0,0.0,0.0,0.0,0.0,0.0,0.0,0.0
1.0,1.00390625,-336227.814702,-5049.527293,-1379271.433267,-18843.057018,-1311117.030515,-1622561.767407,-1900542.187755,-2408931.900136,-3547874.158367,-2540830.080608,-2546902.602542,-2458404.178429,-2464733.656017,-47549.134201,-2541488.294779,-2523618.343308
2.0,1.0078125,-336197.237515,-5318.284669,-1379263.92308,-18922.450414,-1311107.374562,-1622556.402988,-1900424.706987,-2408924.926391,-3547868.793949,-2540809.159375,-2546877.389774,-2458392.91315,-2464736.874668,-47305.589593,-2541461.472686,-2523604.932261
3.0,1.01171875,-336265.365632,-5510.330857,-1379329.368988,-19046.368485,-1311115.957632,-1622574.10557,-1900535.214011,-2408935.655229,-3547881.132112,-2540807.013608,-2546875.244007,-2458401.49622,-2464735.265343,-47810.38139,-2541443.233662,-2523610.833122
4.0,1.015625,-336287.896191,-5286.634599,-1379413.053919,-18979.849694,-1311124.540701,-1622578.397105,-1900719.213571,-2408946.384066,-3547882.741437,-2540818.815329,-2546886.509286,-2458405.251313,-2464750.285715,-47914.987554,-2541446.988755,-2523614.588215
5.0,1.01953125,-336230.496911,-5222.261575,-1379424.855641,-18841.984134,-1311118.103399,-1622566.058942,-1900688.099943,-2408942.628973,-3547864.502414,-2540817.742445,-2546881.144867,-2458390.230941,-2464762.087436,-47677.343807,-2541450.207406,-2523606.005145
6.0,1.0234375,-336212.794329,-5442.739182,-1379388.914035,-18905.284274,-1311123.467818,-1622576.251337,-1900548.088616,-2408949.602717,-3547865.038856,-2540805.940724,-2546869.879588,-2458390.767382,-2464747.603506,-47612.434341,-2541456.644709,-2523606.005145
7.0,1.02734375,-336223.523167,-5480.826554,-1379050.955659,-18988.969205,-1310536.063973,-1622001.185656,-1900261.092217,-2408367.563291,-3547280.853663,-2540197.615647,-2546266.382488,-2457800.144887,-2464166.636964,-47784.095738,-2540857.975585,-2523012.70044
8.0,1.03125,-334822.33701,-5067.229875,-1370423.361113,-17622.65177,-1297830.438355,-1609413.040806,-1892075.52577,-2395760.642977,-3534714.166488,-2527466.777261,-2533596.162033,-2445111.148967,-2450763.636919,-46366.816326,-2528251.055271,-2510412.75387
9.0,1.03515625,-335691.372835,-5007.684828,-1374743.327468,-18213.810708,-1305530.524913,-1617153.360504,-1895986.18698,-2403404.939581,-3542416.398813,-2535144.869702,-2541384.225057,-2452897.602665,-2456585.6405,-46877.508983,-2536024.634364,-2518150.9278
10.0,1.0390625,-336333.493749,-5161.107202,-1378281.16158,-18850.030762,-1311169.065376,-1622725.382176,-1899336.266439,-2408998.955369,-3547971.254345,-2540785.555933,-2546982.53238,-2458513.61257,-2462678.010783,-47552.352852,-2541599.338245,-2523742.797821
11.0,1.04296875,-336371.581122,-5440.593414,-1378253.266603,-19013.645531,-1311164.2374,-1622695.877873,-1899418.342044,-2409000.564694,-3547940.677159,-2540774.290654,-2546933.179728,-2458476.061639,-2463289.554511,-47756.200761,-2541547.303384,-2523713.293518
12.0,1.046875,-336403.231192,-5356.908483,-1378341.779511,-19016.327741,-1311174.966237,-1622691.586338,-1899694.609606,-2409015.048625,-3547929.948322,-2540789.311026,-2546923.523775,-2458463.187035,-2463698.323214,-47924.107066,-2541524.236384,-2523698.273146
13.0,1.05078125,-336349.050563,-5055.964596,-1378424.928001,-18881.680832,-1311177.648446,-1622676.565966,-1899833.548049,-2409027.386788,-3547911.172856,-2540809.695817,-2546926.742426,-2458449.775988,-2463975.127217,-47735.279529,-2541524.236384,-2523688.08075
14.0,1.0546875,-336263.756307,-5150.378364,-1378448.531443,-18848.421436,-1311161.55519,-1622651.88964,-1899765.956374,-2409018.803718,-3547884.887205,-2540790.38391,-2546898.311007,-2458425.099662,-2464147.325056,-47575.956294,-2541510.825337,-2523660.722215
15.0,1.05859375,-336289.505516,-5458.832438,-1378528.461281,-19008.281113,-1311150.826353,-1622640.624361,-1899824.964979,-2409010.75709,-3547875.767693,-2540766.244026,-2546865.588053,-2458409.542848,-2464288.409267,-47733.133761,-2541488.294779,-2523637.655215
16.0,1.0625,-336346.904796,-5450.78581,-1378671.691259,-19050.123578,-1311159.409423,-1622648.670989,-1900078.16554,-2409021.485927,-3547877.377019,-2540772.144887,-2546864.515169,-2458411.688615,-2464382.823036,-47941.809647,-2541479.711709,-2523633.900122
17.0,1.06640625,-336322.22847,-5142.868178,-1378791.317796,-18924.05974,-1311177.648446,-1622658.326943,-1900237.488775,-2409047.235137,-3547882.204995,-2540802.185631,-2546890.264379,-2458420.271685,-2464474.554595,-47804.480529,-2541500.0965,-2523647.311169
18.0,1.0703125,-336273.41226,-5164.325853,-1378826.722959,-18851.103646,-1311167.992493,-1622641.160803,-1900163.459797,-2409041.870718,-3547862.356646,-2540785.019491,-2546871.488913,-2458401.49622,-2464516.933503,-47611.361457,-2541495.804965,-2523631.217913
19.0,1.07421875,-336317.400493,-5477.607903,-1378887.34089,-19003.453136,-1311169.065376,-1622647.598105,-1900157.022495,-2409042.943602,-3547862.893088,-2540766.780468,-2546851.104123,-2458398.81401,-2464542.146271,-47714.894738,-2541487.758337,-2523623.707726
20.0,1.078125,-336389.283703,-5550.027555,-1379011.795403,-19078.018555,-1311186.767958,-1622667.446454,-1900367.307707,-2409060.646184,-3547877.377019,-2540775.89998,-2546857.541425,-2458413.297941,-2464579.160759,-47950.392717,-2541492.049872,-2523633.900122
21.0,1.08203125,-336383.919285,-5253.911645,-1379124.984637,-18987.35988,-1311200.179005,-1622674.956641,-1900532.531802,-2409082.103858,-3547882.204995,-2540802.722073,-2546879.535541,-2458421.344569,-2464639.77869,-47857.051832,-2541507.070244,-2523645.165401
22.0,1.0859375,-336306.671656,-5187.392853,-1379152.879614,-18895.091879,-1311188.377284,-1622661.009152,-1900458.502824,-2409079.421649,-3547870.403274,-2540800.039864,-2546869.879588,-2458405.787755,-2464654.799063,-47352.796477,-2541499.023616,-2523633.900122
23.0,1.08984375,-336308.280982,-5486.190973,-1379181.311033,-18992.187857,-1311167.456051,-1622645.452338,-1900391.984033,-2409060.109742,-3547854.310018,-2540764.6347,-2546831.792215,-2458383.793638,-2464660.163481,-47452.038223,-2541448.598081,-2523608.687354
24.0,1.09375,-336400.548983,-5625.665858,-1379275.18836,-19088.747393,-1311182.476423,-1622666.910013,-1900555.598802,-2409077.812323,-3547869.330391,-2540765.171142,-2546835.547308,-2458396.131801,-2464687.522016,-47936.445229,-2541440.015011,-2523617.806866
25.0,1.09765625,-336415.569355,-5477.607903,-1379370.13857,-19001.307368,-1311200.715447,-1622680.321059,-1900736.916153,-2409099.269998,-3547877.377019,-2540790.920352,-2546857.541425,-2458409.006406,-2464712.734784,-47933.226577,-2541454.498941,-2523631.217913
26.0,1.1015625,-336356.56075,-5465.806182,-1379385.695384,-18888.118135,-1311220.563796,-1622693.195664,-1900686.490618,-2409121.264115,-3547883.814321,-2540811.841585,-2546874.171123,-2458417.053034,-2464724.000063,-47695.046389,-2541479.711709,-2523644.628959
27.0,1.10546875,-336357.633633,-5448.103601,-1379376.575872,-18976.094601,-1311194.814586,-1622669.592222,-1900571.692058,-2409092.296254,-3547852.700693,-2540766.244026,-2546825.891355,-2458382.184313,-2464700.396621,-47681.0989,-2541451.28029,-2523608.687354
28.0,1.109375,-336432.199053,-5622.447207,-1379439.339571,-19104.840649,-1311205.006981,-1622685.149036,-1900684.34485,-2409103.561533,-3547863.965972,-2540758.197398,-2546823.745587,-2458391.840266,-2464719.172087,-47923.034182,-2541450.743848,-2523612.978889
29.0,1.11328125,-336461.166914,-5412.161995,-1379520.342293,-19057.633764,-1311226.464656,-1622705.533827,-1900875.318155,-2409129.310743,-3547879.522786,-2540783.410166,-2546848.958355,-2458409.542848,-2464752.967924,-47985.261439,-2541467.373546,-2523629.608587
30.0,1.1171875,-336397.866773,-5192.757272,-1379540.190642,-18922.986856,-1311207.152749,-1622680.321059,-1900852.251154,-2409120.727673,-3547854.310018,-2540774.827096,-2546836.08375,-2458386.475848,-2464739.556878,-47749.763459,-2541461.472686,-2523614.051773
31.0,1.12109375,-336360.315843,-5410.016228,-1379510.686339,-18956.246252,-1311197.496795,-1622670.665106,-1900706.875409,-2409111.071719,-3547840.36253,-2540749.077886,-2546812.480308,-2458374.137685,-2464728.291598,-47676.807365,-2541456.108267,-2523600.640726
32.0,1.125,-336431.662611,-5663.216789,-1379550.383037,-19109.132184,-1311213.590051,-1622695.341432,-1900771.248433,-2409126.628533,-3547857.52867,-2540747.468561,-2546814.626076,-2458389.694499,-2464739.556878,-47901.040065,-2541459.86336,-2523611.906005
33.0,1.12890625,-335984.806536,-5413.771321,-1376498.565256,-18612.387015,-1306465.543087,-1617981.626747,-1897973.704097,-2404416.668942,-3543148.10552,-2535994.59362,-2542067.651995,-2453635.210232,-2459931.964866,-47537.33248,-2536728.982535,-2518889.071809
34.0,1.1328125,-334913.532128,-5010.903479,-1369824.69199,-17472.448048,-1297352.468652,-1609012.855174,-1891419.993808,-2395379.232809,-3534181.479714,-2526850.941998,-2533040.408258,-2444586.508821,-2449182.206295,-46025.102857,-2527768.25759,-2509906.352747
35.0,1.13671875,-336398.939657,-5366.027995,-1377849.862319,-18816.771366,-1310315.586366,-1621926.083794,-1898902.284968,-2408239.353685,-3547057.693846,-2539800.112224,-2546020.692113,-2457596.296978,-2461273.605975,-47444.528037,-2540697.579467,-2522830.310205
36.0,1.140625,-336538.414542,-5638.004021,-1378394.887256,-19088.747393,-1311259.18761,-1622831.597666,-1899549.23386,-2409184.027813,-3547960.525508,-2540739.958374,-2546916.013588,-2458503.956616,-2462954.814786,-47849.005204,-2541580.56278,-2523746.552914
37.0,1.14453125,-336566.30952,-5574.167439,-1378449.604326,-19089.283835,-1311256.505401,-1622805.848456,-1899816.381909,-2409185.637139,-3547930.484763,-2540740.494816,-2546885.436402,-2458470.160779,-2463475.163397,-48036.223416,-2541536.038105,-2523718.121495
38.0,1.1484375,-336514.8111,-5273.759994,-1378512.904467,-18962.683554,-1311226.464656,-1622755.959363,-1899967.122074,-2409166.325231,-3547882.204995,-2540735.130398,-2546854.859216,-2458422.417453,-2463813.121773,-47861.879809,-2541498.487174,-2523674.133262
39.0,1.15234375,-336442.92789,-5359.054251,-1378526.315513,-18941.225879,-1311206.079865,-1622721.627083,-1899901.139724,-2409150.768417,-3547845.726948,-2540710.454072,-2546815.162517,-2458386.475848,-2464017.506125,-47699.337923,-2541473.274407,-2523636.582331
40.0,1.15625,-336499.790728,-5673.945626,-1378598.198724,-19100.549114,-1311210.907842,-1622725.382176,-1899954.247469,-2409155.596394,-3547844.117623,-2540694.360816,-2546795.85061,-2458382.720754,-2464159.126778,-47851.687414,-2541461.472686,-2523624.78061
41.0,1.16015625,-336568.455287,-5689.502441,-1378739.819376,-19144.537347,-1311233.974842,-1622747.376293,-1900213.348891,-2409180.27272,-3547860.747321,-2540714.745607,-2546807.652331,-2458399.886894,-2464282.508407,-48073.774347,-2541464.691337,-2523633.900122
42.0,1.1640625,-336550.752705,-5386.949228,-1378861.59168,-19031.348113,-1311242.557912,-1622746.303409,-1900383.937405,-2409195.829534,-3547859.674437,-2540738.349049,-2546822.672704,-2458398.81401,-2464399.989176,-47952.002043,-2541475.956616,-2523638.191657
43.0,1.16796875,-336476.187286,-5392.313646,-1378899.679053,-18958.392019,-1311227.001098,-1622724.845734,-1900317.955055,-2409188.319348,-3547837.68032,-2540721.182909,-2546803.897238,-2458378.42922,-2464436.467223,-47752.445668,-2541470.592197,-2523619.416192
44.0,1.171875,-336492.816984,-5711.496557,-1378953.859681,-19105.377091,-1311215.735819,-1622717.335548,-1900301.861799,-2409178.126952,-3547824.269274,-2540690.605723,-2546771.710726,-2458363.408847,-2464472.94527,-47850.61453,-2541452.353174,-2523600.104284
45.0,1.17578125,-336572.21038,-5807.519651,-1379077.777753,-19187.989138,-1311225.391772,-1622732.35592,-1900511.074127,-2409188.319348,-3547834.461669,-2540690.069281,-2546773.320052,-2458369.309708,-2464518.006387,-48097.914231,-2541448.061639,-2523600.640726
46.0,1.1796875,-336574.892589,-5522.66902,-1379196.867847,-19088.747393,-1311209.834958,-1622712.507571,-1900688.099943,-2409181.345604,-3547810.321785,-2540684.704862,-2546763.127656,-2458348.388475,-2464556.630201,-48039.442067,-2541431.431941,-2523581.865261
47.0,1.18359375,-336509.446682,-5444.884949,-1379226.908592,-19019.546392,-1311240.412145,-1622737.720339,-1900620.508268,-2409220.50586,-3547830.170134,-2540718.5007,-2546792.095517,-2458374.137685,-2464571.650573,-47817.891576,-2541474.34729,-2523612.442447
48.0,1.1875,-336531.440798,-5746.365279,-1379249.43915,-19112.887277,-1311233.974842,-1622732.35592,-1900546.47929,-2409211.92279,-3547821.050623,-2540690.069281,-2546765.273424,-2458363.408847,-2464563.603945,-47857.051832,-2541463.618453,-2523598.494959
49.0,1.19140625,-336620.490148,-5908.370722,-1379341.707151,-19225.540069,-1311228.073982,-1622731.819478,-1900704.193199,-2409206.558371,-3547813.003995,-2540669.148048,-2546744.888633,-2458352.68001,-2464577.014992,-48111.861719,-2541440.551453,-2523584.011028
50.0,1.1953125,-336640.874939,-5662.680347,-1379440.948897,-19126.834765,-1311214.126493,-1622715.189781,-1900893.557178,-2409195.829534,-3547793.692087,-2540660.564978,-2546736.305563,-2458331.222335,-2464621.539667,-48119.908347,-2541422.312429,-2523565.772005
51.0,1.19921875,-336577.574799,-5507.648648,-1379460.797246,-19025.983694,-1311215.199377,-1622710.898246,-1900842.058759,-2409206.558371,-3547788.327669,-2540671.293816,-2546743.815749,-2458332.831661,-2464637.096481,-47886.019693,-2541442.160778,-2523570.599982
52.0,1.203125,-336549.14338,-5774.260256,-1379454.896385,-19116.64237,-1311230.756191,-1622727.527944,-1900719.213571,-2409225.333837,-3547800.665832,-2540669.148048,-2546744.352191,-2458345.706266,-2464621.003225,-47861.879809,-2541459.86336,-2523582.401703
53.0,1.20703125,-336641.411381,-5996.88363,-1379519.805851,-19255.044371,-1311248.458773,-1622752.740711,-1900822.21041,-2409239.817767,-3547819.441297,-2540669.148048,-2546745.425075,-2458360.190196,-2464622.076109,-48105.960859,-2541463.082011,-2523590.984773
54.0,1.2109375,-336687.545381,-5960.405583,-1379608.318759,-19220.712092,-1311267.234238,-1622770.979735,-1901014.79304,-2409259.129674,-3547829.097251,-2540690.069281,-2546764.736982,-2458370.382592,-2464653.189737,-48181.06272,-2541474.34729,-2523603.859377
55.0,1.21484375,-336637.119846,-5840.779047,-1379622.266248,-19084.455858,-1311279.035959,-1622776.344153,-1901001.918435,-2409274.150047,-3547831.243018,-2540709.91763,-2546777.611587,-2458373.064801,-2464695.032203,-47777.658436,-2541487.221895,-2523611.906005
56.0,1.21875,-336619.417264,-5734.563557,-1379592.225503,-19116.64237,-1311273.135099,-1622770.443293,-1900858.152015,-2409271.467837,-3547828.560809,-2540695.970141,-2546757.763238,-2458363.408847,-2464698.787296,-47468.131479,-2541457.717592,-2523601.71361
57.0,1.22265625,-336688.081823,-5973.280188,-1379635.677294,-19266.846093,-1311247.922331,-1622753.813595,-1900914.478411,-2409247.864395,-3547807.103134,-2540655.20056,-2546716.457214,-2458338.19608,-2464678.938947,-48026.03102,-2541401.927638,-2523570.599982
58.0,1.2265625,-336724.023428,-5840.779047,-1379626.557782,-19232.513813,-1311124.00426,-1622630.431966,-1901030.349854,-2409124.482766,-3547677.820644,-2540530.746046,-2546592.002701,-2458209.450031,-2464560.385294,-48221.29586,-2541267.817172,-2523441.853934
59.0,1.23046875,-335296.551621,-5274.832877,-1371564.372964,-17879.070983,-1299250.936419,-1610854.460103,-1893296.467459,-2397356.557531,-3535942.618363,-2528657.678206,-2534763.995977,-2446355.157656,-2452224.904564,-46559.398956,-2529504.183472,-2511671.246489
60.0,1.234375,-335711.757626,-5542.517369,-1373290.642892,-18203.618312,-1303229.725746,-1614918.007245,-1894597.338986,-2401307.988323,-3539976.661203,-2532590.333532,-2538825.397351,-2450432.115845,-2454073.483237,-46676.879725,-2533589.188288,-2515720.846143
61.0,1.23828125,-336808.244802,-5950.74963,-1378485.00949,-19237.878232,-1311350.382727,-1622972.145435,-1899607.169581,-2409356.762094,-3547988.420485,-2540695.970141,-2546899.383891,-2458535.070245,-2462436.611943,-48016.911509,-2541617.040827,-2523779.81231
62.0,1.2421875,-336824.874499,-5894.423234,-1378488.228141,-19241.633325,-1311320.341983,-1622910.991062,-1899852.323515,-2409335.304419,-3547922.974577,-2540672.903141,-2546836.08375,-2458466.942128,-2463118.965998,-48214.858558,-2541534.428779,-2523725.631681
63.0,1.24609375,-336768.011662,-5585.432718,-1378533.289258,-19079.091439,-1311311.222471,-1622872.903689,-1900007.891656,-2409334.767978,-3547888.642298,-2540686.314188,-2546817.844727,-2458431.536964,-2463572.259375,-48046.952253,-2541509.752454,-2523696.66382
64.0,1.25,-336690.227591,-5654.097277,-1378540.799444,-19080.164323,-1311303.175843,-1622850.909573,-1899953.174585,-2409333.158652,-3547866.111739,-2540680.949769,-2546794.777727,-2458406.324197,-2463862.474425,-47874.754414,-2541498.487174,-2523670.378169
65.0,1.25390625,-336741.72601,-5966.842886,-1378605.172468,-19245.92486,-1311314.441122,-1622858.419759,-1900005.745888,-2409343.887489,-3547869.330391,-2540671.830257,-2546777.075145,-2458406.324197,-2464062.0308,-48012.083532,-2541490.976988,-2523660.185773
66.0,1.2578125,-336804.489708,-5989.909886,-1378740.89226,-19296.886837,-1311333.216588,-1622874.513015,-1900268.065961,-2409363.199397,-3547880.059228,-2540685.777746,-2546784.585331,-2458417.589476,-2464211.698081,-48232.561139,-2541488.294779,-2523665.550192
67.0,1.26171875,-336780.349824,-5678.773603,-1378865.346773,-19176.723859,-1311310.149587,-1622842.326503,-1900450.992638,-2409346.569699,-3547844.117623,-2540678.26756,-2546765.273424,-2458383.793638,-2464334.543268,-48116.689696,-2541464.691337,-2523634.436564
68.0,1.265625,-336696.128451,-5663.216789,-1378906.116355,-19095.721137,-1311314.977564,-1622839.107852,-1900394.1298,-2409359.444303,-3547843.581181,-2540685.777746,-2546765.809866,-2458382.720754,-2464398.37985,-47907.477368,-2541481.321035,-2523636.045889
69.0,1.26953125,-336696.128451,-5968.988653,-1378961.369867,-19232.513813,-1311343.945425,-1622869.685038,-1900375.890777,-2409391.630815,-3547874.158367,-2540699.188793,-2546777.611587,-2458412.225057,-2464461.67999,-47983.652113,-2541507.070244,-2523659.11289
70.0,1.2734375,-336761.574359,-6062.329538,-1379085.824381,-19319.417396,-1311324.097076,-1622852.518899,-1900579.738686,-2409371.782466,-3547851.627809,-2540669.68449,-2546748.107284,-2458389.694499,-2464514.787735,-48222.905186,-2541470.592197,-2523630.145029
71.0,1.27734375,-336757.819266,-5772.65093,-1379206.523801,-19253.435046,-1311335.898797,-1622860.029085,-1900765.884014,-2409394.313025,-3547855.919344,-2540693.287932,-2546769.564959,-2458398.277569,-2464579.160759,-48173.016092,-2541482.93036,-2523640.873866
72.0,1.28125,-336688.081823,-5670.190533,-1379243.538289,-19113.423719,-1311342.336099,-1622861.101968,-1900711.166943,-2409408.260513,-3547856.992228,-2540702.407444,-2546774.929377,-2458398.81401,-2464590.96248,-47941.273205,-2541501.705826,-2523646.238285
73.0,1.28515625,-336700.956428,-5958.259816,-1379263.92308,-19210.519697,-1311315.514006,-1622837.498526,-1900634.455756,-2409381.43842,-3547828.024367,-2540657.346327,-2546731.477586,-2458368.773266,-2464599.009108,-47958.975787,-2541474.883732,-2523614.588215
74.0,1.2890625,-336773.37608,-6123.483911,-1379354.581756,-19324.781814,-1311300.493634,-1622828.915456,-1900787.87813,-2409365.881606,-3547813.003995,-2540627.842024,-2546701.973284,-2458349.997801,-2464604.373527,-48203.593278,-2541445.915871,-2523590.984773
75.0,1.29296875,-336785.714243,-5948.603862,-1379453.287059,-19244.315534,-1311320.878425,-1622846.081596,-1900982.606528,-2409386.802839,-3547823.732832,-2540656.273443,-2546725.576726,-2458365.018173,-2464634.414272,-48219.150093,-2541461.472686,-2523608.150912
76.0,1.296875,-336720.268335,-6003.857375,-1379477.426943,-19139.172928,-1311347.700518,-1622867.002829,-1900950.956458,-2409418.989351,-3547836.607437,-2540684.16842,-2546753.471703,-2458384.33008,-2464657.481272,-47979.360578,-2541496.341407,-2523632.290796
77.0,1.30078125,-336714.367475,-5943.239444,-1379467.77099,-19199.790859,-1311364.330216,-1622884.705411,-1900828.11127,-2409432.400397,-3547845.190507,-2540678.26756,-2546748.643726,-2458392.91315,-2464661.772807,-47935.908787,-2541510.825337,-2523638.728099
78.0,1.3046875,-336788.932894,-6091.833841,-1379536.971991,-19331.219117,-1311362.184449,-1622890.069829,-1900924.670806,-2409433.473281,-3547846.26339,-2540661.637862,-2546734.696237,-2458390.767382,-2464674.647412,-48169.260999,-2541498.487174,-2523632.827238
79.0,1.30859375,-336815.754988,-5904.079187,-1379629.776434,-19283.47579,-1311365.939542,-1622893.28848,-1901122.081414,-2409443.665677,-3547844.654065,-2540669.148048,-2546738.45133,-2458388.085173,-2464697.17797,-48255.091698,-2541495.804965,-2523633.36368
80.0,1.3125,-336749.772638,-5657.315929,-1379660.35362,-19164.385696,-1311360.575123,-1622879.877434,-1901116.716995,-2409446.884328,-3547836.607437,-2540675.58535,-2546741.669982,-2458379.502103,-2464710.052575,-47889.238344,-2541500.632942,-2523630.145029
81.0,1.31640625,-336706.320847,-5847.752791,-1379635.140852,-19176.187417,-1311368.621751,-1622890.069829,-1900970.268365,-2409457.613165,-3547851.091367,-2540680.949769,-2546740.060656,-2458385.939406,-2464707.370366,-47537.33248,-2541490.976988,-2523636.582331
82.0,1.3203125,-336769.620987,-6113.291516,-1379675.373992,-19326.927582,-1311346.627634,-1622873.976573,-1901018.011691,-2409435.082607,-3547828.560809,-2540639.643745,-2546699.827516,-2458360.726638,-2464699.323738,-48066.26416,-2541435.723476,-2523605.468703
83.0,1.32421875,-336810.927011,-5993.128537,-1379759.058924,-19323.70893,-1311349.309844,-1622879.340992,-1901215.422298,-2409440.983467,-3547828.024367,-2540643.93528,-2546703.582609,-2458363.408847,-2464720.781412,-48286.741768,-2541430.359057,-2523607.61447
84.0,1.328125,-336463.849123,-5621.374324,-1377786.562179,-18885.435925,-1308289.981877,-1619836.642723,-1899338.412206,-2406413.842012,-3544792.836284,-2537594.799709,-2543656.592805,-2455299.252903,-2461646.969515,-47781.413529,-2538398.926067,-2520569.207736
85.0,1.33203125,-335166.732689,-5470.097717,-1369680.389128,-17645.182329,-1296896.493065,-1608589.602541,-1891350.792807,-2395108.866109,-3533557.061381,-2526151.421803,-2532315.675296,-2443955.116743,-2448848.003012,-46242.898255,-2527151.885885,-2509302.319205
86.0,1.3359375,-336650.530893,-6052.137143,-1377398.714709,-19078.018555,-1309503.949821,-1621176.674506,-1898569.154569,-2407617.08112,-3546101.754439,-2538730.447141,-2544956.391449,-2456631.238059,-2460236.127405,-47785.705064,-2539745.395153,-2521886.172519
87.0,1.33984375,-336906.950105,-6039.79898,-1378620.729282,-19294.204628,-1311412.073542,-1623033.83625,-1899981.069563,-2409515.012445,-3547955.161089,-2540648.226815,-2546828.037122,-2458500.201523,-2462881.858692,-48261.529,-2541581.635664,-2523764.255496
88.0,1.34375,-336846.332174,-5729.199139,-1378640.577631,-19123.616114,-1311393.298077,-1622988.238691,-1900128.591076,-2409508.575142,-3547910.099972,-2540656.809885,-2546798.53282,-2458454.067523,-2463438.68535,-48106.4973,-2541544.084733,-2523727.777449
89.0,1.34765625,-336761.574359,-5782.306884,-1378631.994561,-19125.22544,-1311394.907402,-1622969.999667,-1900070.118912,-2409516.62177,-3547892.933833,-2540659.492094,-2546778.68447,-2458436.364941,-2463769.669982,-47928.398601,-2541536.574547,-2523709.001983
90.0,1.3515625,-336794.297313,-6095.052492,-1378686.711632,-19293.131744,-1311390.079426,-1622958.197946,-1900108.742727,-2409510.184468,-3547874.694809,-2540634.815769,-2546743.815749,-2458417.589476,-2463985.856055,-48055.535323,-2541509.752454,-2523682.17989
91.0,1.35546875,-336851.696593,-6130.994097,-1378815.994122,-19353.213233,-1311377.741263,-1622944.250458,-1900363.552614,-2409500.528514,-3547855.382902,-2540618.722513,-2546718.602981,-2458397.204685,-2464163.954754,-48282.986675,-2541480.248151,-2523655.357797
92.0,1.359375,-336827.556709,-5820.930698,-1378937.766425,-19244.315534,-1311362.184449,-1622921.183458,-1900552.380151,-2409492.481886,-3547830.706576,-2540617.649629,-2546707.337702,-2458372.528359,-2464301.283872,-48177.844069,-2541462.545569,-2523631.217913
93.0,1.36328125,-336745.481103,-5790.353512,-1378981.754658,-19153.120417,-1311387.933658,-1622937.276714,-1900495.517313,-2409525.741282,-3547848.9456,-2540647.153932,-2546731.477586,-2458392.91315,-2464380.140827,-47962.194438,-2541497.414291,-2523653.212029
94.0,1.3671875,-336761.574359,-6093.979608,-1379033.253078,-19279.184256,-1311390.615867,-1622941.568248,-1900471.913871,-2409526.277724,-3547847.336274,-2540629.45135,-2546713.775005,-2458388.621615,-2464430.566362,-48031.395439,-2541493.122756,-2523645.165401
95.0,1.37109375,-336833.994011,-6204.486633,-1379152.879614,-19374.670908,-1311404.026914,-1622956.588621,-1900667.715152,-2409539.152329,-3547856.992228,-2540632.133559,-2546714.311446,-2458396.668243,-2464492.793619,-48273.867163,-2541488.294779,-2523649.456936
96.0,1.375,-336832.921127,-6038.189654,-1379274.651918,-19286.694442,-1311412.609984,-1622960.343714,-1900865.125759,-2409555.782027,-3547855.919344,-2540653.054792,-2546727.722493,-2458398.81401,-2464561.99462,-48234.706907,-2541496.341407,-2523654.284913
97.0,1.37890625,-336761.574359,-6056.965119,-1379308.447755,-19161.167045,-1311375.595495,-1622915.819039,-1900823.283294,-2409520.376864,-3547804.420925,-2540611.748768,-2546684.807144,-2458348.388475,-2464555.557317,-48002.427578,-2541465.227779,-2523607.078029
98.0,1.3828125,-336753.527731,-6050.527817,-1379326.686779,-19264.700325,-1311379.350588,-1622924.938551,-1900737.989037,-2409524.668398,-3547806.03025,-2540596.728396,-2546672.468981,-2458348.924917,-2464565.213271,-48009.401323,-2541469.519314,-2523606.005145
99.0,1.38671875,-336824.338058,-6199.658656,-1379427.001408,-19383.79042,-1311391.688751,-1622939.958923,-1900881.219015,-2409536.47012,-3547820.514181,-2540596.191954,-2546671.932539,-2458360.726638,-2464585.598062,-48253.482372,-2541468.44643,-2523614.051773
100.0,1.390625,-336840.967755,-5967.379328,-1379538.581316,-19314.052977,-1311376.131937,-1622923.865667,-1901083.457599,-2409524.668398,-3547796.374297,-2540587.608884,-2546660.130818,-2458339.805405,-2464629.586295,-48287.27821,-2541449.134523,-2523595.276307
101.0,1.39453125,-336778.740499,-5777.478907,-1379571.30427,-19186.379813,-1311376.131937,-1622918.501248,-1901057.171948,-2409533.78791,-3547787.254785,-2540593.509745,-2546664.422353,-2458334.977428,-2464644.070225,-48045.879369,-2541460.936244,-2523593.13054
102.0,1.3984375,-336760.501475,-6014.586212,-1379560.575433,-19250.752837,-1311374.522611,-1622919.574132,-1900925.207248,-2409535.397236,-3547783.499692,-2540575.807163,-2546648.865539,-2458331.758777,-2464634.950714,-47995.990276,-2541463.618453,-2523590.984773
103.0,1.40234375,-336830.77536,-6248.474866,-1379624.412015,-19392.909931,-1311393.298077,-1622943.714016,-1901015.329482,-2409552.563376,-3547808.176018,-2540579.025814,-2546654.766399,-2458351.607126,-2464642.4609,-48226.660279,-2541471.665081,-2523604.932261
104.0,1.40625,-336863.498314,-6077.886352,-1379713.461365,-19379.498885,-1311412.073542,-1622959.807272,-1901220.786717,-2409576.70326,-3547822.659948,-2540600.483489,-2546673.541865,-2458366.091057,-2464671.965202,-48324.82914,-2541484.003244,-2523619.416192
105.0,1.41015625,-336805.562592,-5826.831559,-1379748.330086,-19225.540069,-1311389.542984,-1622933.52162,-1901228.833345,-2409566.510864,-3547796.910739,-2540594.582629,-2546662.276585,-2458340.878289,-2464696.641528,-47973.996159,-2541473.810848,-2523601.177168
106.0,1.4140625,-336768.548103,-6011.904003,-1379724.726644,-19232.513813,-1311404.026914,-1622950.151318,-1901080.238948,-2409585.286329,-3547814.076878,-2540602.629257,-2546663.885911,-2458351.607126,-2464696.641528,-47604.387713,-2541468.982872,-2523611.369564
107.0,1.41796875,-336833.994011,-6282.807145,-1379760.131807,-19390.227722,-1311406.709123,-1622959.807272,-1901118.32632,-2409587.432097,-3547818.904855,-2540585.999559,-2546649.938422,-2458353.216452,-2464699.860179,-48125.272766,-2541440.015011,-2523607.078029
108.0,1.421875,-336876.909361,-6179.810307,-1379839.525204,-19381.10821,-1311391.688751,-1622946.396225,-1901310.908951,-2409572.411725,-3547800.12939,-2540569.906303,-2546633.308725,-2458334.977428,-2464718.099203,-48360.770745,-2541413.729359,-2523587.229679
109.0,1.42578125,-336827.556709,-5881.548629,-1379877.612576,-19247.534185,-1311403.490472,-1622952.297086,-1901350.605649,-2409596.015167,-3547807.639576,-2540598.874163,-2546657.448609,-2458344.633382,-2464728.82804,-48159.605045,-2541438.942127,-2523604.932261
110.0,1.4296875,-336189.190887,-5833.268861,-1376138.076322,-18664.421876,-1305789.089893,-1617378.666088,-1897666.859349,-2404026.139262,-3542244.737416,-2534972.671863,-2541041.975146,-2452730.769245,-2458992.118715,-47428.971223,-2535866.920455,-2518028.619054
111.0,1.43359375,-335396.86625,-5934.119932,-1370424.433997,-17960.610147,-1298222.040918,-1609963.966604,-1892014.907839,-2396514.880242,-3534818.772652,-2527335.349004,-2533535.00766,-2445232.92127,-2449661.248882,-46585.148166,-2528433.981947,-2510576.905081
112.0,1.4375,-336928.944222,-6211.460377,-1378398.642349,-19300.64193,-1310872.949466,-1622560.158081,-1899672.615489,-2409062.255509,-3547373.121664,-2539978.210923,-2546197.717929,-2457918.162098,-2461687.739097,-48229.87893,-2541028.564099,-2523178.997419
113.0,1.44140625,-336940.209501,-5901.93342,-1378739.819376,-19222.321418,-1311436.213426,-1623074.06939,-1900171.506425,-2409637.321191,-3547895.616042,-2540572.588512,-2546741.669982,-2458443.875127,-2462995.584368,-48178.380511,-2541554.81357,-2523728.31389
114.0,1.4453125,-336845.25929,-5937.875025,-1378689.393841,-19211.59258,-1311448.015147,-1623060.658343,-1900103.91475,-2409657.705981,-3547883.814321,-2540593.509745,-2546732.014028,-2458433.14629,-2463475.699839,-47993.844508,-2541553.740687,-2523720.803704
115.0,1.44921875,-336871.0085,-6245.256215,-1378714.606609,-19346.775931,-1311474.837241,-1623076.751599,-1900140.392797,-2409685.064517,-3547898.298251,-2540603.70214,-2546728.258935,-2458443.338685,-2463830.287913,-48108.643068,-2541557.49578,-2523724.022356
116.0,1.453125,-336531.97724,-6206.095958,-1376916.989913,-19090.356718,-1308395.660924,-1620015.277864,-1898583.638499,-2406646.657782,-3544869.011029,-2537535.791103,-2543650.691944,-2455363.089486,-2461062.24788,-47950.929159,-2538484.220324,-2520660.402854
117.0,1.45703125,-328183.332465,-4262.567075,-1344659.131129,-13081.134925,-1260821.850398,-1572850.772482,-1868689.342581,-2360838.813882,-3500925.302616,-2491592.763852,-2497959.255929,-2409488.726793,-2415676.047287,-39129.142657,-2493015.944125,-2475170.66898
118.0,1.4609375,-321074.941286,-2920.389524,-1320600.786281,-8572.341033,-1228267.339261,-1539209.430123,-1847066.980251,-2330207.98328,-3473684.248171,-2461413.080861,-2468578.334877,-2379915.759553,-2383718.059506,-30658.189137,-2463865.156634,-2445818.179347
119.0,1.46484375,-323656.835992,-3494.918763,-1326248.982698,-10152.162332,-1239411.382605,-1545448.785478,-1852414.23278,-2338546.43566,-3483968.375202,-2473075.327048,-2480841.932397,-2392211.543585,-2389062.093385,-32446.686321,-2476145.383852,-2457197.184229
120.0,1.46875,-329368.332549,-4451.931054,-1338517.944636,-13496.877372,-1263994.904041,-1562576.837847,-1862346.990388,-2355197.591209,-3501697.242462,-2495795.249438,-2503699.720347,-2415221.144583,-2401125.061646,-38477.365789,-2498916.26822,-2477453.229124
121.0,1.47265625,-337240.616946,-5595.088672,-1360487.384854,-18510.999502,-1306977.308628,-1599692.177736,-1882061.228998,-2389956.341977,-3542262.439997,-2536588.971208,-2544142.609136,-2455856.616003,-2431021.503332,-46802.407122,-2539107.029332,-2517619.31391
122.0,1.4765625,-337772.230836,-5641.759114,-1362702.889765,-18988.432764,-1311715.163197,-1612278.176818,-1884984.300731,-2398241.686611,-3548623.031214,-2540591.900419,-2547711.020435,-2459438.97479,-2442049.13879,-47697.192156,-2542607.848955,-2524477.186737
123.0,1.48046875,-337512.592973,-5948.603862,-1363187.833212,-19147.755998,-1311642.743545,-1617824.985722,-1886116.729512,-2402830.946783,-3548507.696212,-2540595.11907,-2547450.309688,-2459168.071648,-2448500.925124,-47771.221134,-2542321.92544,-2524664.404948
124.0,1.484375,-337422.470739,-6160.4984,-1364072.962293,-19292.595302,-1311583.73494,-1620854.809386,-1887482.510505,-2406427.789501,-3548333.352606,-2540581.708024,-2547261.482151,-2458968.515273,-2453057.998783,-48065.727719,-2542098.765623,-2524431.589178
125.0,1.48828125,-337330.202738,-5953.968281,-1365130.289212,-19204.082394,-1311564.959474,-1622748.449176,-1888860.629661,-2408953.35781,-3548205.679441,-2540595.11907,-2547145.610707,-2458829.040388,-2456168.288728,-48146.73044,-2541950.707668,-2524258.854897
126.0,1.4921875,-337181.608341,-5758.703441,-1366181.17883,-19080.164323,-1311555.303521,-1623373.403951,-1889937.268488,-2409758.557052,-3548108.047021,-2540607.993675,-2547059.243567,-2458726.043549,-2458217.496659,-47934.835903,-2541854.684574,-2524127.963081
127.0,1.49609375,-337072.710642,-5994.201421,-1367187.543772,-19189.062022,-1311555.839962,-1623365.357323,-1890817.03315,-2409806.83682,-3548059.767253,-2540618.722513,-2546998.625636,-2458670.790037,-2459577.913234,-47894.066321,-2541799.431062,-2524048.033243
128.0,1.5,-337086.65813,-6240.428238,-1368241.652041,-19343.020838,-1311542.965358,-1623322.978416,-1891816.96079,-2409798.253751,-3548013.633253,-2540607.457233,-2546936.934821,-2458616.609408,-2460565.502711,-48134.928719,-2541731.302945,-2523969.176289
129.0,1.50390625,-337085.048805,-6084.323655,-1369276.984844,-19283.47579,-1311509.705962,-1623256.459624,-1892852.830035,-2409767.140122,-3547947.114461,-2540590.291094,-2546877.926216,-2458546.335524,-2461317.594208,-48255.091698,-2541651.909548,-2523886.564241
130.0,1.5078125,-337001.363874,-5820.394256,-1370198.055529,-19125.22544,-1311493.612706,-1623207.643414,-1893619.405463,-2409754.265518,-3547898.834693,-2540595.11907,-2546847.885471,-2458500.201523,-2461903.388727,-48036.759858,-2541619.186594,-2523835.065822
131.0,1.51171875,-336798.588848,-5963.087793,-1370355.769438,-19090.356718,-1310190.058969,-1621888.532864,-1893536.793415,-2408465.195711,-3546582.942794,-2539288.883124,-2545512.681665,-2457171.435019,-2461055.274136,-47811.454274,-2540305.440462,-2522509.517969
132.0,1.515625,-335250.41762,-5877.793536,-1363055.332071,-17848.493796,-1296458.22006,-1608235.014467,-1886291.073119,-2394866.394385,-3533034.030561,-2525526.467028,-2531804.982639,-2443457.298691,-2447003.179431,-46321.755209,-2526691.618763,-2508904.27934
133.0,1.51953125,-336563.62731,-6022.096398,-1368859.09663,-18814.089157,-1307026.66128,-1618838.86085,-1891705.380881,-2405324.865022,-3543556.337781,-2536068.622597,-2542437.796883,-2454108.351959,-2455660.27828,-47621.017411,-2537263.278635,-2519445.898467
134.0,1.5234375,-337079.684386,-5825.222233,-1371993.526458,-19130.589858,-1311544.574683,-1623305.275834,-1894736.27743,-2409802.545286,-3547971.254345,-2540614.96742,-2546919.23224,-2458577.985594,-2460989.291786,-48064.118393,-2541701.2622,-2523903.193939
135.0,1.52734375,-336927.871338,-5913.735141,-1372293.397462,-19127.371207,-1311140.633957,-1622862.174852,-1894914.376129,-2409412.552048,-3547532.444898,-2540220.682647,-2546471.839723,-2458131.665961,-2461459.751303,-47883.337484,-2541262.989195,-2523467.066701
136.0,1.53125,-335583.011577,-5856.872303,-1365355.594797,-18021.228078,-1298848.605019,-1610611.988379,-1888142.870443,-2397217.619087,-3535357.360286,-2527898.612964,-2534172.300598,-2445834.809045,-2449410.73053,-46655.42205,-2529029.432419,-2511241.020112
137.0,1.53515625,-336372.654006,-6017.268421,-1368937.417142,-18645.109969,-1305207.050467,-1617018.713596,-1891444.133692,-2403522.420349,-3541719.560828,-2534224.335459,-2540589.754652,-2452264.06482,-2454001.063585,-47430.044106,-2535425.965241,-2517613.949491
138.0,1.5390625,-337097.92341,-5869.746908,-1373085.185657,-19158.484835,-1311553.157753,-1623317.077555,-1895496.951997,-2409822.930076,-3547964.280601,-2540605.311466,-2546908.503402,-2458573.157617,-2460972.125646,-48111.325277,-2541695.897781,-2523899.975288
139.0,1.54296875,-336972.396013,-5885.840164,-1373477.861104,-19142.928021,-1311508.633078,-1623229.101089,-1895821.499326,-2409791.816448,-3547882.204995,-2540577.416489,-2546825.891355,-2458487.86336,-2461852.42675,-47922.49774,-2541619.186594,-2523823.800543
140.0,1.546875,-336952.011222,-6228.626517,-1373916.670551,-19326.39114,-1311100.937259,-1622803.702689,-1896212.565447,-2409397.531676,-3547448.223525,-2540157.382507,-2546367.233559,-2458042.080169,-2462034.280543,-48004.573346,-2541175.54917,-2523382.308886
141.0,1.55078125,-337014.77492,-6340.206425,-1374395.713138,-19412.221839,-1310859.538419,-1622554.793662,-1896758.663268,-2409160.960813,-3547187.512778,-2539906.864155,-2546095.257532,-2457773.322794,-2462138.886707,-48207.884813,-2540895.526516,-2523115.160837
142.0,1.5546875,-336992.780804,-5942.16656,-1374879.583702,-19213.738348,-1311522.044125,-1623189.404391,-1897237.705855,-2409812.737681,-3547834.461669,-2540593.509745,-2546767.955633,-2458433.682732,-2463096.435439,-48191.791557,-2541538.720314,-2523749.235123
143.0,1.55859375,-336894.611942,-5866.528257,-1375266.358288,-19168.140789,-1311536.528055,-1623187.795065,-1897486.078439,-2409836.341123,-3547835.534553,-2540619.795396,-2546776.002261,-2458435.828499,-2463368.947908,-47970.777508,-2541555.886454,-2523748.16224
144.0,1.5625,-336871.544942,-6160.4984,-1375627.920106,-19293.131744,-1311515.606822,-1623165.264507,-1897714.602675,-2409818.638542,-3547807.639576,-2540586.536001,-2546732.014028,-2458405.251313,-2463576.014468,-48016.375067,-2541524.236384,-2523713.82996
145.0,1.56640625,-336933.772198,-6332.159797,-1376014.158251,-19402.565885,-1311236.657052,-1622887.38762,-1898134.636657,-2409546.126073,-3547522.788945,-2540294.711625,-2546431.070141,-2458110.208286,-2463449.950629,-48242.753535,-2541224.901822,-2523420.932701
146.0,1.5703125,-336952.011222,-6343.961518,-1376347.825092,-19306.542791,-1310816.086628,-1622465.207871,-1898516.583266,-2409137.357371,-3547086.661707,-2539871.995434,-2546000.843763,-2457666.570862,-2463066.931136,-48180.526278,-2540796.284771,-2522996.607184
147.0,1.57421875,-336879.055128,-5951.286072,-1376654.133398,-19160.630603,-1311493.612706,-1623126.104251,-1898684.48957,-2409803.081727,-3547756.141157,-2540558.641023,-2546689.098679,-2458349.461359,-2463847.454053,-48002.96402,-2541471.665081,-2523659.11289
148.0,1.578125,-336836.67622,-6054.819352,-1376897.678005,-19269.528302,-1311537.600939,-1623166.337391,-1898779.976223,-2409848.142844,-3547796.910739,-2540589.754652,-2546715.920772,-2458390.767382,-2463997.121334,-47991.698741,-2541512.434663,-2523692.908727
149.0,1.58203125,-336894.0755,-6251.693517,-1377193.257474,-19397.201466,-1311556.376404,-1623185.112856,-1899085.211645,-2409866.91831,-3547810.858227,-2540597.264838,-2546714.311446,-2458404.178429,-2464093.144428,-48229.87893,-2541514.58043,-2523698.809588
150.0,1.5859375,-336910.705198,-6032.825235,-1377496.347129,-19345.166605,-1311567.105242,-1623191.013717,-1899453.210766,-2409880.865798,-3547810.321785,-2540613.894536,-2546725.040284,-2458407.933522,-2464187.021755,-48287.27821,-2541517.26264,-2523703.637565
151.0,1.58984375,-336840.431314,-5808.056093,-1377717.361178,-19201.400185,-1311531.163637,-1623147.561925,-1899592.685651,-2409853.507263,-3547764.187785,-2540585.463117,-2546691.780888,-2458362.872405,-2464236.374406,-48046.415811,-2541491.51343,-2523665.01375
152.0,1.59375,-336802.880383,-6021.023514,-1377874.002203,-19239.487557,-1311528.481427,-1623143.806832,-1899594.294977,-2409854.580147,-3547756.141157,-2540568.296977,-2546672.468981,-2458354.825777,-2464285.727058,-47969.704624,-2541489.367663,-2523652.675587
153.0,1.59765625,-336875.300035,-6272.078308,-1378084.823857,-19390.764164,-1311542.428916,-1623160.972972,-1899793.314909,-2409865.845426,-3547768.47932,-2540564.541884,-2546668.713888,-2458366.091057,-2464327.033082,-48196.619534,-2541486.149011,-2523656.967122
154.0,1.6015625,-336910.168756,-6121.338144,-1378314.420976,-19381.10821,-1311554.230637,-1623170.092484,-1900108.206285,-2409881.40224,-3547775.989506,-2540578.489373,-2546679.442725,-2458373.064801,-2464375.849292,-48314.636745,-2541490.440546,-2523665.550192
155.0,1.60546875,-336850.623709,-5841.315489,-1378477.499304,-19237.878232,-1311549.40266,-1623158.827205,-1900229.442147,-2409886.766659,-3547765.260668,-2540586.536001,-2546684.807144,-2458365.018173,-2464444.513851,-48049.634463,-2541497.414291,-2523661.258657
156.0,1.609375,-336781.422708,-5990.446328,-1378567.621537,-19218.566325,-1311536.528055,-1623144.879716,-1900169.360658,-2409879.792914,-3547759.359808,-2540575.807163,-2546664.958795,-2458349.997801,-2464456.852014,-47636.574225,-2541480.248151,-2523649.993378
157.0,1.61328125,-336843.113523,-6277.442727,-1378703.877771,-19368.770047,-1311525.262776,-1623141.124623,-1900273.966822,-2409868.527635,-3547750.240296,-2540549.521512,-2546633.845166,-2458337.123196,-2464472.408828,-48025.494579,-2541435.723476,-2523630.145029
158.0,1.6171875,-336896.75771,-6201.804424,-1378876.612053,-19365.014954,-1311528.481427,-1623146.489042,-1900541.651314,-2409875.501379,-3547751.31318,-2540551.130837,-2546634.91805,-2458338.19608,-2464516.397061,-48324.82914,-2541426.603964,-2523629.072145
159.0,1.62109375,-336852.769477,-5890.131699,-1379005.358101,-19242.706209,-1311519.361916,-1623130.395786,-1900670.397362,-2409876.037821,-3547735.219924,-2540554.349489,-2546636.527376,-2458324.785033,-2464543.755596,-48140.82958,-2541426.067522,-2523619.416192
160.0,1.625,-336782.495592,-5966.306444,-1379047.200566,-19203.545952,-1311534.382288,-1623144.343274,-1900587.248872,-2409897.495496,-3547747.021645,-2540564.005442,-2546645.646887,-2458338.732521,-2464543.755596,-47967.022415,-2541453.426058,-2523636.582331
161.0,1.62890625,-336428.980402,-6153.524656,-1376485.15421,-18944.444531,-1307494.97503,-1619135.513203,-1898102.450145,-2405880.618796,-3543739.800899,-2536498.312533,-2542584.781955,-2454292.351519,-2460454.995686,-47696.655714,-2537424.211195,-2519613.268329
162.0,1.6328125,-335394.18404,-5903.006304,-1369465.812381,-17864.050611,-1297480.678258,-1609272.493037,-1891356.157226,-2395941.960328,-3533876.244292,-2526433.053784,-2532633.785323,-2444334.917585,-2448931.687943,-46661.859353,-2527539.196913,-2509719.134536
163.0,1.63671875,-336883.346663,-5901.93342,-1377437.338524,-19060.315974,-1310360.647483,-1622108.474029,-1898911.940922,-2408722.687807,-3546671.455702,-2539317.314543,-2545558.815665,-2457264.775904,-2460847.134691,-47964.876648,-2540403.072882,-2522566.380807
164.0,1.640625,-336924.116245,-5908.370722,-1378172.263881,-19173.505208,-1311579.979846,-1623277.380857,-1899643.647628,-2409946.848148,-3547841.435414,-2540552.203721,-2546742.206424,-2458445.484453,-2462793.882226,-47942.882531,-2541581.099222,-2523763.182612
165.0,1.64453125,-336899.976361,-6216.824796,-1378188.893579,-19318.880954,-1311586.417149,-1623262.896927,-1899693.536722,-2409959.186311,-3547826.415041,-2540548.98507,-2546709.48347,-2458428.318313,-2463315.840163,-48038.369183,-2541553.740687,-2523747.625798
166.0,1.6484375,-336948.256129,-6297.827518,-1378325.686255,-19395.055699,-1311574.615428,-1623242.512136,-1899973.559376,-2409951.676125,-3547800.665832,-2540536.110465,-2546677.8334,-2458404.178429,-2463643.606143,-48277.085814,-2541514.58043,-2523714.366402
167.0,1.65234375,-336931.089989,-6120.26526,-1378476.962862,-19299.569046,-1311578.370521,-1623228.028205,-1900231.051473,-2409960.259194,-3547785.109018,-2540550.057954,-2546678.369841,-2458387.548731,-2463916.118612,-48213.249232,-2541505.460919,-2523700.955355
168.0,1.65625,-336859.743221,-6138.504283,-1378547.773188,-19196.035766,-1311602.510405,-1623243.048578,-1900249.290496,-2409989.227055,-3547793.692087,-2540574.197838,-2546691.780888,-2458395.058917,-2464096.899521,-47985.79788,-2541529.600803,-2523710.611309
169.0,1.66015625,-336866.180523,-6162.107725,-1378625.557259,-19300.105488,-1311600.901079,-1623239.293485,-1900252.509147,-2409986.008404,-3547783.499692,-2540555.958814,-2546665.495237,-2458383.793638,-2464205.260778,-48016.375067,-2541515.116872,-2523692.908727
170.0,1.6640625,-336936.99085,-6289.78089,-1378778.443191,-19406.320978,-1311590.172242,-1623233.929066,-1900477.278289,-2409978.498218,-3547772.234413,-2540536.646907,-2546642.964678,-2458371.991917,-2464302.356756,-48259.383233,-2541489.367663,-2523671.987494
171.0,1.66796875,-336942.89171,-6027.460817,-1378941.521518,-19312.980093,-1311563.88659,-1623199.060345,-1900733.16106,-2409953.28545,-3547738.975017,-2540518.407883,-2546618.288352,-2458336.586754,-2464374.776408,-48261.529,-2541458.254034,-2523638.191657
172.0,1.671875,-336862.42543,-5854.190094,-1379022.52424,-19222.321418,-1311553.694195,-1623180.284879,-1900745.499223,-2409951.139683,-3547721.272435,-2540516.262116,-2546609.168841,-2458321.02994,-2464419.837525,-47955.220694,-2541459.326918,-2523624.78061
173.0,1.67578125,-336832.921127,-6105.781329,-1379070.804008,-19288.840209,-1311584.271381,-1623211.934949,-1900680.053315,-2409986.008404,-3547755.068273,-2540540.938442,-2546625.798538,-2458350.534242,-2464456.852014,-47660.177667,-2541476.493058,-2523652.675587
174.0,1.6796875,-336916.069617,-6317.675867,-1379192.576312,-19400.956559,-1311594.463777,-1623228.564647,-1900837.230782,-2409994.055032,-3547767.406436,-2540537.719791,-2546620.970562,-2458355.898661,-2464512.105526,-48145.657557,-2541453.426058,-2523655.357797
175.0,1.68359375,-336939.673059,-6112.218632,-1379332.587639,-19334.437768,-1311590.708684,-1623222.663787,-1901085.066925,-2409996.737241,-3547759.359808,-2540538.792674,-2546618.824794,-2458346.242708,-2464556.630201,-48297.470605,-2541442.160778,-2523647.84761
176.0,1.6875,-336869.935616,-5871.892675,-1379405.007291,-19217.493441,-1311586.953591,-1623208.179856,-1901113.498344,-2410003.174544,-3547748.630971,-2540545.229977,-2546623.116329,-2458339.805405,-2464578.624317,-48059.290416,-2541450.743848,-2523644.628959
177.0,1.69140625,-336806.099034,-6067.693957,-1379421.636989,-19240.023999,-1311588.026474,-1623211.934949,-1901000.845552,-2410007.466079,-3547748.094529,-2540533.428256,-2546612.387492,-2458340.341847,-2464570.041248,-47968.095299,-2541460.936244,-2523643.019634
178.0,1.6953125,-336855.988128,-6320.894518,-1379502.639711,-19384.863303,-1311584.271381,-1623216.226484,-1901091.504227,-2410004.247427,-3547744.875877,-2540511.970581,-2546589.856933,-2458334.440986,-2464575.942108,-48177.844069,-2541444.842988,-2523632.290796
179.0,1.69921875,-336891.929733,-6183.028958,-1379616.901829,-19370.379373,-1311598.755312,-1623228.564647,-1901325.392881,-2410022.486451,-3547753.458947,-2540527.527395,-2546604.340864,-2458344.633382,-2464608.665062,-48308.199442,-2541451.816732,-2523642.483192
180.0,1.703125,-336839.894872,-5894.959676,-1379682.347737,-19229.831604,-1311579.443405,-1623201.742554,-1901387.620138,-2410011.757614,-3547726.636854,-2540522.162977,-2546595.221352,-2458320.493498,-2464627.976969,-48090.404044,-2541442.69722,-2523624.244168
181.0,1.70703125,-336788.396452,-6027.997259,-1379672.155341,-19216.956999,-1311574.615428,-1623197.451019,-1901259.410531,-2410011.221172,-3547720.199552,-2540507.142604,-2546581.810305,-2458312.983312,-2464625.29476,-47949.319833,-2541446.452313,-2523617.806866
182.0,1.7109375,-336853.84236,-6316.602983,-1379714.534249,-19368.770047,-1311592.854451,-1623223.200229,-1901294.279253,-2410028.923753,-3547741.657226,-2540503.387511,-2546581.273863,-2458329.61301,-2464624.221876,-48129.027859,-2541456.108267,-2523626.926378
183.0,1.71484375,-336909.095873,-6325.186053,-1379808.411575,-19387.009071,-1311591.245126,-1623224.273112,-1901515.293302,-2410028.923753,-3547735.219924,-2540499.632418,-2546575.373003,-2458325.857917,-2464647.825318,-48312.490977,-2541442.69722,-2523622.098401
184.0,1.71875,-336875.300035,-6301.582611,-1379862.592204,-19263.090999,-1311597.145986,-1623224.273112,-1901609.170629,-2410036.970381,-3547725.56397,-2540510.897697,-2546586.638282,-2458321.02994,-2464663.918574,-48137.610929,-2541454.498941,-2523622.634843
185.0,1.72265625,-336825.947383,-6051.600701,-1379838.988762,-19199.790859,-1311624.504521,-1623249.48588,-1901476.133046,-2410063.792475,-3547742.193668,-2540523.23586,-2546600.585771,-2458337.123196,-2464640.315132,-47960.048671,-2541488.294779,-2523641.94675
186.0,1.7265625,-336859.743221,-6224.334982,-1379784.271691,-19349.45814,-1311525.799218,-1623157.754321,-1901391.375231,-2409967.769381,-3547646.170574,-2540404.145766,-2546485.250769,-2458237.345009,-2464515.860619,-48089.867603,-2541383.688615,-2523540.022795
187.0,1.73046875,-335655.43123,-5905.688513,-1372126.564041,-18207.909847,-1300035.75087,-1611770.16637,-1894141.899841,-2398566.770383,-3536282.186065,-2528892.103302,-2535013.441445,-2446757.489056,-2452629.381732,-46972.995636,-2529963.914152,-2512136.87803
188.0,1.734375,-336062.590607,-5683.60158,-1373750.373572,-18365.623756,-1303709.841217,-1615520.967903,-1895534.502928,-2402217.257287,-3540000.801087,-2532541.517322,-2538781.409118,-2450521.701637,-2454278.404031,-46841.567378,-2533727.59029,-2515878.02361
189.0,1.73828125,-336976.151106,-5876.18421,-1378786.489819,-19179.406068,-1311698.533499,-1623433.48544,-1900317.955055,-2410144.795197,-3547900.980461,-2540546.839302,-2546749.71661,-2458503.420175,-2462471.480664,-47873.68153,-2541641.180711,-2523817.899682
190.0,1.7421875,-336954.156989,-6187.320493,-1378715.679492,-19321.563163,-1311689.950429,-1623399.689603,-1900312.590636,-2410144.795197,-3547866.111739,-2540533.428256,-2546697.145307,-2458462.114151,-2463127.012626,-48042.124276,-2541589.14585,-2523787.322496
191.0,1.74609375,-337009.410502,-6287.635122,-1378787.562703,-19410.076071,-1311655.081708,-1623349.264067,-1900562.036104,-2410113.681568,-3547811.931111,-2540496.950209,-2546634.91805,-2458406.324197,-2463551.338142,-48292.642628,-2541518.335523,-2523728.31389
192.0,1.75,-336992.244362,-5998.492956,-1378890.023099,-19302.251256,-1311671.174964,-1623345.508974,-1900802.362061,-2410135.675685,-3547810.321785,-2540526.454511,-2546647.256213,-2458403.641987,-2463852.818472,-48243.289977,-2541519.944849,-2523725.631681
193.0,1.75390625,-336901.585686,-5897.641885,-1378937.766425,-19216.956999,-1311663.664778,-1623324.0513,-1900801.825619,-2410136.212127,-3547789.400552,-2540525.381628,-2546634.381608,-2458385.402964,-2464056.666381,-48014.765741,-2541515.653314,-2523706.319774
194.0,1.7578125,-336887.638198,-6183.5654,-1378990.87417,-19314.589419,-1311668.492755,-1623328.342835,-1900776.076409,-2410141.576545,-3547788.327669,-2540515.725674,-2546618.288352,-2458382.184313,-2464197.750592,-48035.686974,-2541511.898221,-2523699.34603
195.0,1.76171875,-336980.442641,-6347.180169,-1379120.15666,-19425.096443,-1311670.10208,-1623332.634369,-1900981.533644,-2410141.576545,-3547785.109018,-2540501.241744,-2546600.049329,-2458373.064801,-2464308.794058,-48282.450233,-2541490.976988,-2523683.789216
196.0,1.765625,-336993.317246,-6099.880469,-1379258.558662,-19340.338628,-1311644.352871,-1623300.984299,-1901228.296903,-2410119.582429,-3547750.776738,-2540485.68493,-2546577.51877,-2458341.951173,-2464394.088315,-48300.689256,-2541461.472686,-2523648.920494
197.0,1.76953125,-336919.82471,-5921.781769,-1379325.613895,-19241.633325,-1311651.863057,-1623300.447857,-1901241.171508,-2410138.894336,-3547748.630971,-2540502.851069,-2546588.78405,-2458344.633382,-2464445.586734,-48060.3633,-2541482.393918,-2523656.967122
198.0,1.7734375,-336876.909361,-6168.008586,-1379357.800407,-19297.959721,-1311651.863057,-1623300.447857,-1901156.950135,-2410142.649429,-3547747.021645,-2540489.976465,-2546574.300119,-2458342.487614,-2464475.091037,-48021.739485,-2541484.003244,-2523653.212029
199.0,1.77734375,-336941.282385,-6392.777728,-1379456.505711,-19430.460862,-1311638.988452,-1623296.692764,-1901287.305509,-2410130.311266,-3547736.292808,-2540463.690813,-2546548.014468,-2458331.222335,-2464516.397061,-48257.237465,-2541459.86336,-2523633.900122
200.0,1.78125,-336969.177362,-6201.804424,-1379582.033108,-19378.426001,-1311629.332498,-1623281.672392,-1901514.220418,-2410123.873964,-3547720.735993,-2540455.107743,-2546538.358514,-2458314.056196,-2464546.437805,-48340.922396,-2541442.69722,-2523617.806866
201.0,1.78515625,-336906.950105,-6001.711607,-1379642.651038,-19241.633325,-1311636.842684,-1623281.672392,-1901540.50607,-2410137.821452,-3547719.126668,-2540471.737441,-2546551.769561,-2458313.519754,-2464570.041248,-48109.17951,-2541460.936244,-2523626.926378
202.0,1.7890625,-336871.544942,-6323.576727,-1379641.578155,-19285.621558,-1311648.107964,-1623294.010555,-1901417.660882,-2410149.623173,-3547722.881761,-2540467.982348,-2546546.941584,-2458319.420614,-2464564.676829,-48013.692857,-2541475.956616,-2523632.290796
203.0,1.79296875,-336941.282385,-6403.506566,-1379705.951179,-19431.533746,-1311674.930057,-1623329.95216,-1901490.080534,-2410178.054592,-3547752.386064,-2540476.028976,-2546559.816189,-2458347.315591,-2464585.598062,-48226.660279,-2541492.049872,-2523651.602704
204.0,1.796875,-336984.197734,-6261.349471,-1379813.775994,-19424.02356,-1311654.008824,-1623307.421602,-1901707.33949,-2410158.206243,-3547726.636854,-2540454.034859,-2546534.066979,-2458320.493498,-2464604.373527,-48373.108908,-2541459.86336,-2523624.78061
